# Gaussian spectral response function from specification
# Band 1 => wavelength center = 451 nm / FWHM = 69 nm
336     0.000
337     0.001
338     0.001
339     0.001
340     0.001
341     0.001
342     0.001
343     0.001
344     0.001
345     0.001
346     0.002
347     0.002
348     0.002
349     0.002
350     0.003
351     0.003
352     0.003
353     0.004
354     0.004
355     0.005
356     0.005
357     0.006
358     0.006
359     0.007
360     0.008
361     0.009
362     0.010
363     0.011
364     0.012
365     0.013
366     0.015
367     0.016
368     0.018
369     0.020
370     0.022
371     0.024
372     0.026
373     0.029
374     0.032
375     0.035
376     0.038
377     0.041
378     0.045
379     0.049
380     0.053
381     0.058
382     0.063
383     0.068
384     0.073
385     0.079
386     0.085
387     0.092
388     0.099
389     0.107
390     0.115
391     0.123
392     0.132
393     0.141
394     0.151
395     0.161
396     0.172
397     0.183
398     0.195
399     0.207
400     0.220
401     0.233
402     0.247
403     0.261
404     0.276
405     0.292
406     0.308
407     0.324
408     0.341
409     0.358
410     0.376
411     0.394
412     0.412
413     0.431
414     0.451
415     0.470
416     0.490
417     0.510
418     0.530
419     0.551
420     0.571
421     0.592
422     0.613
423     0.633
424     0.654
425     0.675
426     0.695
427     0.715
428     0.735
429     0.754
430     0.774
431     0.792
432     0.810
433     0.828
434     0.845
435     0.861
436     0.877
437     0.892
438     0.906
439     0.920
440     0.932
441     0.943
442     0.954
443     0.963
444     0.972
445     0.979
446     0.986
447     0.991
448     0.995
449     0.998
450     0.999
451     1.000
452     0.999
453     0.998
454     0.995
455     0.991
456     0.986
457     0.979
458     0.972
459     0.963
460     0.954
461     0.943
462     0.932
463     0.920
464     0.906
465     0.892
466     0.877
467     0.861
468     0.845
469     0.828
470     0.810
471     0.792
472     0.774
473     0.754
474     0.735
475     0.715
476     0.695
477     0.675
478     0.654
479     0.633
480     0.613
481     0.592
482     0.571
483     0.551
484     0.530
485     0.510
486     0.490
487     0.470
488     0.451
489     0.431
490     0.412
491     0.394
492     0.376
493     0.358
494     0.341
495     0.324
496     0.308
497     0.292
498     0.276
499     0.261
500     0.247
501     0.233
502     0.220
503     0.207
504     0.195
505     0.183
506     0.172
507     0.161
508     0.151
509     0.141
510     0.132
511     0.123
512     0.115
513     0.107
514     0.099
515     0.092
516     0.085
517     0.079
518     0.073
519     0.068
520     0.063
521     0.058
522     0.053
523     0.049
524     0.045
525     0.041
526     0.038
527     0.035
528     0.032
529     0.029
530     0.026
531     0.024
532     0.022
533     0.020
534     0.018
535     0.016
536     0.015
537     0.013
538     0.012
539     0.011
540     0.010
541     0.009
542     0.008
543     0.007
544     0.006
545     0.006
546     0.005
547     0.005
548     0.004
549     0.004
550     0.003
551     0.003
552     0.003
553     0.002
554     0.002
555     0.002
556     0.002
557     0.001
558     0.001
559     0.001
560     0.001
561     0.001
562     0.001
563     0.001
564     0.001
565     0.001
566     0.000
