# Gaussian spectral response function from specification
# Band 2 => wavelength center = 560 nm / FWHM = 65 nm
452     0.000
453     0.001
454     0.001
455     0.001
456     0.001
457     0.001
458     0.001
459     0.001
460     0.001
461     0.002
462     0.002
463     0.002
464     0.002
465     0.003
466     0.003
467     0.003
468     0.004
469     0.004
470     0.005
471     0.006
472     0.006
473     0.007
474     0.008
475     0.009
476     0.010
477     0.011
478     0.012
479     0.013
480     0.015
481     0.017
482     0.018
483     0.020
484     0.023
485     0.025
486     0.028
487     0.030
488     0.033
489     0.037
490     0.040
491     0.044
492     0.048
493     0.053
494     0.057
495     0.063
496     0.068
497     0.074
498     0.080
499     0.087
500     0.094
501     0.102
502     0.110
503     0.119
504     0.128
505     0.137
506     0.148
507     0.158
508     0.170
509     0.181
510     0.194
511     0.207
512     0.220
513     0.235
514     0.249
515     0.265
516     0.281
517     0.297
518     0.314
519     0.332
520     0.350
521     0.369
522     0.388
523     0.407
524     0.427
525     0.448
526     0.468
527     0.489
528     0.511
529     0.532
530     0.554
531     0.576
532     0.598
533     0.620
534     0.642
535     0.664
536     0.685
537     0.707
538     0.728
539     0.749
540     0.769
541     0.789
542     0.808
543     0.827
544     0.845
545     0.863
546     0.879
547     0.895
548     0.910
549     0.924
550     0.936
551     0.948
552     0.959
553     0.968
554     0.977
555     0.984
556     0.990
557     0.994
558     0.997
559     0.999
560     1.000
561     0.999
562     0.997
563     0.994
564     0.990
565     0.984
566     0.977
567     0.968
568     0.959
569     0.948
570     0.936
571     0.924
572     0.910
573     0.895
574     0.879
575     0.863
576     0.845
577     0.827
578     0.808
579     0.789
580     0.769
581     0.749
582     0.728
583     0.707
584     0.685
585     0.664
586     0.642
587     0.620
588     0.598
589     0.576
590     0.554
591     0.532
592     0.511
593     0.489
594     0.468
595     0.448
596     0.427
597     0.407
598     0.388
599     0.369
600     0.350
601     0.332
602     0.314
603     0.297
604     0.281
605     0.265
606     0.249
607     0.235
608     0.220
609     0.207
610     0.194
611     0.181
612     0.170
613     0.158
614     0.148
615     0.137
616     0.128
617     0.119
618     0.110
619     0.102
620     0.094
621     0.087
622     0.080
623     0.074
624     0.068
625     0.063
626     0.057
627     0.053
628     0.048
629     0.044
630     0.040
631     0.037
632     0.033
633     0.030
634     0.028
635     0.025
636     0.023
637     0.020
638     0.018
639     0.017
640     0.015
641     0.013
642     0.012
643     0.011
644     0.010
645     0.009
646     0.008
647     0.007
648     0.006
649     0.006
650     0.005
651     0.004
652     0.004
653     0.003
654     0.003
655     0.003
656     0.002
657     0.002
658     0.002
659     0.002
660     0.001
661     0.001
662     0.001
663     0.001
664     0.001
665     0.001
666     0.001
667     0.001
668     0.000
