# ATLAS3, shifted to air wavelengths.
# It is ATLAS2 for wavelengths larger than 407.8
# Source: Bernhard Mayer, IFU.
# two columns, wavelength [nm] and irradiance [mW/ (m2 nm)]
#
200.00 7.12904
200.05 7.02787
200.10 7.22708
200.15 7.61477
200.20 7.63340
200.25 7.64274
200.30 7.70706
200.35 7.54931
200.40 7.30337
200.45 7.40346
200.50 7.69798
200.55 8.06502
200.60 7.91082
200.65 7.72579
200.70 7.49186
200.75 7.53993
200.80 7.66413
200.85 7.70170
200.90 7.85688
200.95 8.12606
201.00 8.13700
201.05 7.65754
201.10 7.27927
201.15 7.50969
201.20 8.25917
201.25 8.69726
201.30 8.76831
201.35 8.49707
201.40 8.18975
201.45 8.05515
201.50 8.02096
201.55 7.98372
201.60 8.11172
201.65 8.38751
201.70 8.77463
201.75 9.03862
201.80 9.20068
201.85 8.92542
201.90 8.67895
201.95 8.73055
202.00 8.74592
202.05 8.53998
202.10 8.21126
202.15 7.86119
202.20 7.81148
202.25 8.28365
202.30 8.89443
202.35 9.09852
202.40 8.91638
202.45 8.15664
202.50 7.14345
202.55 6.53365
202.60 6.26885
202.65 7.13754
202.70 8.42686
202.75 9.05435
202.80 9.27542
202.85 9.22798
202.90 9.00461
202.95 8.98137
203.00 9.26514
203.05 9.79783
203.10 10.2583
203.15 10.2399
203.20 9.94057
203.25 9.40535
203.30 8.63998
203.35 8.15877
203.40 8.15730
203.45 8.45668
203.50 9.17963
203.55 9.89123
203.60 10.2025
203.65 10.2446
203.70 10.1993
203.75 10.2192
203.80 10.0477
203.85 9.49379
203.90 8.95581
203.95 8.81615
204.00 9.08186
204.05 9.70992
204.10 10.2852
204.15 10.8278
204.20 11.2145
204.25 11.2968
204.30 11.0012
204.35 10.3032
204.40 9.96895
204.45 10.0619
204.50 10.4444
204.55 11.1675
204.60 11.4586
204.65 11.1189
204.70 10.5005
204.75 10.0663
204.80 10.3604
204.85 10.6601
204.90 10.6871
204.95 10.6591
205.00 10.9634
205.05 11.1006
205.10 11.0408
205.15 11.0673
205.20 11.1945
205.25 11.3560
205.30 11.5157
205.35 11.5250
205.40 11.3754
205.45 11.0352
205.50 10.5914
205.55 9.92017
205.60 10.2834
205.65 11.1509
205.70 11.4125
205.75 11.0109
205.80 10.0521
205.85 9.95352
205.90 10.6539
205.95 11.3585
206.00 11.5932
206.05 11.6067
206.10 11.3479
206.15 10.6379
206.20 10.0249
206.25 10.3877
206.30 11.1953
206.35 11.4627
206.40 11.4736
206.45 11.7217
206.50 11.7550
206.55 11.3652
206.60 11.2162
206.65 11.7026
206.70 12.2405
206.75 12.3479
206.80 12.2611
206.85 11.9760
206.90 11.8159
206.95 11.8218
207.00 11.9959
207.05 12.4622
207.10 12.7951
207.15 12.6275
207.20 12.4464
207.25 12.4600
207.30 12.9409
207.35 13.3810
207.40 13.4104
207.45 13.4255
207.50 13.6418
207.55 13.9580
207.60 14.1832
207.65 14.4134
207.70 14.3308
207.75 14.0364
207.80 13.6274
207.85 13.4692
207.90 13.7004
207.95 14.2966
208.00 14.5259
208.05 14.0996
208.10 13.7046
208.15 13.3909
208.20 13.1084
208.25 13.1935
208.30 13.7386
208.35 14.1019
208.40 13.6072
208.45 13.2040
208.50 13.7367
208.55 15.7431
208.60 17.1165
208.65 17.3560
208.70 17.1104
208.75 17.4527
208.80 19.5558
208.85 20.0436
208.90 18.3427
208.95 16.3598
209.00 16.3879
209.05 17.0347
209.10 18.0300
209.15 18.6407
209.20 19.9418
209.25 23.3540
209.30 24.9181
209.35 23.3002
209.40 18.8180
209.45 18.5593
209.50 20.9772
209.55 23.4632
209.60 24.7738
209.65 23.5757
209.70 23.3374
209.75 25.1546
209.80 27.0813
209.85 24.9955
209.90 22.9571
209.95 20.9038
210.00 19.8329
210.05 22.4486
210.10 27.9970
210.15 32.9549
210.20 34.5236
210.25 28.8476
210.30 22.2180
210.35 18.1671
210.40 21.9364
210.45 31.2293
210.50 37.5055
210.55 39.9633
210.60 37.8454
210.65 34.9153
210.70 33.8173
210.75 32.5593
210.80 28.1161
210.85 23.1379
210.90 20.0515
210.95 20.2582
211.00 21.0723
211.05 25.1084
211.10 32.7300
211.15 36.6311
211.20 40.6193
211.25 38.6951
211.30 31.6149
211.35 29.0894
211.40 28.5990
211.45 26.5377
211.50 25.8164
211.55 31.9485
211.60 38.7044
211.65 43.6388
211.70 46.0906
211.75 43.0451
211.80 38.3603
211.85 35.3215
211.90 39.3802
211.95 47.6816
212.00 52.0384
212.05 51.4094
212.10 42.7385
212.15 34.1430
212.20 30.9940
212.25 28.7467
212.30 24.3836
212.35 17.2115
212.40 13.9410
212.45 13.5321
212.50 17.5791
212.55 26.4829
212.60 32.7079
212.65 36.1465
212.70 37.4713
212.75 37.3037
212.80 37.3945
212.85 37.9255
212.90 37.8465
212.95 33.2016
213.00 27.2146
213.05 25.0669
213.10 27.0977
213.15 30.3814
213.20 30.1654
213.25 29.4622
213.30 30.7445
213.35 32.8774
213.40 30.5062
213.45 26.7285
213.50 25.4526
213.55 27.8133
213.60 32.4625
213.65 37.4226
213.70 43.1506
213.75 42.2283
213.80 33.2766
213.85 25.5757
213.90 22.7134
213.95 25.3020
214.00 35.1157
214.05 47.5134
214.10 52.9469
214.15 52.7041
214.20 49.6062
214.25 47.8933
214.30 49.3754
214.35 50.2385
214.40 48.7299
214.45 44.7898
214.50 40.0206
214.55 35.9583
214.60 34.5961
214.65 34.0242
214.70 34.6245
214.75 35.8110
214.80 38.0618
214.85 42.2863
214.90 45.2738
214.95 47.9886
215.00 45.8350
215.05 34.2761
215.10 30.8179
215.15 33.1652
215.20 35.8540
215.25 39.8311
215.30 46.4046
215.35 50.3982
215.40 49.3230
215.45 43.7332
215.50 40.0361
215.55 37.5627
215.60 35.4434
215.65 32.2267
215.70 25.5998
215.75 22.9467
215.80 21.8969
215.85 22.0810
215.90 25.1300
215.95 30.2448
216.00 36.6257
216.05 43.0312
216.10 45.1462
216.15 41.5435
216.20 39.4115
216.25 40.0923
216.30 40.9371
216.35 38.4552
216.40 37.2442
216.45 37.7051
216.50 35.6586
216.55 28.3748
216.60 22.0882
216.65 18.9680
216.70 20.6040
216.75 27.8613
216.80 32.8796
216.85 32.2614
216.90 29.6783
216.95 28.6363
217.00 33.6437
217.05 37.2766
217.10 37.3362
217.15 37.6185
217.20 39.9022
217.25 41.6585
217.30 40.4679
217.35 34.0703
217.40 28.5007
217.45 25.6387
217.50 25.9729
217.55 29.6462
217.60 35.4039
217.65 36.0374
217.70 33.0077
217.75 28.5489
217.80 26.7930
217.85 32.8193
217.90 40.7730
217.95 50.0197
218.00 55.0534
218.05 56.0324
218.10 56.7798
218.15 57.7071
218.20 59.6533
218.25 60.8847
218.30 57.2268
218.35 49.1252
218.40 41.6917
218.45 43.1627
218.50 50.1185
218.55 54.3327
218.60 49.6541
218.65 33.5131
218.70 25.3890
218.75 29.6313
218.80 39.8926
218.85 43.2651
218.90 38.4514
218.95 38.2131
219.00 43.9749
219.05 47.3069
219.10 43.7536
219.15 39.3057
219.20 39.3468
219.25 51.4464
219.30 64.4252
219.35 67.0128
219.40 63.1473
219.45 53.3104
219.50 42.9843
219.55 36.2833
219.60 33.8958
219.65 37.2967
219.70 46.2128
219.75 54.5373
219.80 59.2625
219.85 61.8012
219.90 59.5746
219.95 54.2205
220.00 46.2055
220.05 35.3766
220.10 32.7017
220.15 41.3831
220.20 50.6799
220.25 59.5055
220.30 67.2208
220.35 69.7504
220.40 65.8436
220.45 61.0506
220.50 59.3188
220.55 60.0286
220.60 55.1444
220.65 50.0567
220.70 45.1186
220.75 40.7761
220.80 35.2732
220.85 34.1708
220.90 38.0778
220.95 38.4400
221.00 30.2129
221.05 24.6408
221.10 21.2431
221.15 22.6635
221.20 31.0417
221.25 40.9127
221.30 49.0548
221.35 50.3179
221.40 45.2180
221.45 45.8720
221.50 48.5080
221.55 45.7349
221.60 35.2838
221.65 26.1356
221.70 23.8717
221.75 25.5605
221.80 31.2680
221.85 38.3707
221.90 46.1982
221.95 52.9604
222.00 54.0532
222.05 54.5145
222.10 57.5725
222.15 59.5246
222.20 56.6335
222.25 49.8930
222.30 45.4983
222.35 48.7635
222.40 53.8139
222.45 52.2650
222.50 50.3332
222.55 50.4010
222.60 49.3391
222.65 45.3404
222.70 43.2650
222.75 43.5635
222.80 48.7107
222.85 56.2057
222.90 57.1347
222.95 54.7692
223.00 50.5634
223.05 45.9353
223.10 43.6872
223.15 45.7780
223.20 56.0002
223.25 73.0482
223.30 83.7696
223.35 85.2795
223.40 81.6694
223.45 76.3028
223.50 78.0911
223.55 80.9370
223.60 79.7552
223.65 73.5893
223.70 67.3582
223.75 63.2267
223.80 57.8659
223.85 55.0711
223.90 64.7389
223.95 71.9077
224.00 72.3736
224.05 66.2336
224.10 55.9976
224.15 53.4988
224.20 53.5403
224.25 53.7293
224.30 52.1408
224.35 49.3978
224.40 46.7575
224.45 48.3799
224.50 57.4754
224.55 64.6752
224.60 66.0370
224.65 66.6890
224.70 70.8655
224.75 75.5868
224.80 75.1002
224.85 66.4848
224.90 54.0487
224.95 53.7364
225.00 55.9870
225.05 54.9092
225.10 51.6327
225.15 53.3828
225.20 60.8499
225.25 63.7198
225.30 55.8802
225.35 45.7675
225.40 48.6011
225.45 55.7171
225.50 56.4812
225.55 50.3735
225.60 46.0747
225.65 47.5526
225.70 51.6738
225.75 54.2445
225.80 53.5407
225.85 55.8331
225.90 57.6850
225.95 49.7362
226.00 39.4726
226.05 38.5484
226.10 43.0014
226.15 48.9767
226.20 52.1892
226.25 50.5957
226.30 47.2061
226.35 42.6767
226.40 39.2223
226.45 35.6571
226.50 34.0650
226.55 33.1620
226.60 34.5750
226.65 35.5378
226.70 34.7214
226.75 33.6106
226.80 33.2243
226.85 32.6663
226.90 31.5526
226.95 31.2466
227.00 31.4811
227.05 31.8018
227.10 33.1291
227.15 34.1613
227.20 35.6005
227.25 37.5183
227.30 38.3294
227.35 36.8038
227.40 35.4374
227.45 38.2234
227.50 39.9296
227.55 37.6649
227.60 37.2414
227.65 40.6921
227.70 44.8599
227.75 46.3957
227.80 46.9111
227.85 47.9211
227.90 48.6476
227.95 47.4130
228.00 46.4781
228.05 51.5585
228.10 59.8036
228.15 63.9871
228.20 66.4638
228.25 65.2737
228.30 57.2075
228.35 51.0752
228.40 51.7831
228.45 57.4714
228.50 66.9541
228.55 67.7368
228.60 60.3256
228.65 48.7735
228.70 39.5727
228.75 40.1479
228.80 47.8434
228.85 54.2402
228.90 54.1671
228.95 47.9971
229.00 43.6644
229.05 42.8041
229.10 44.9252
229.15 48.1625
229.20 49.7524
229.25 50.9555
229.30 52.9798
229.35 54.1241
229.40 53.1027
229.45 52.9562
229.50 56.9223
229.55 63.1264
229.60 62.8777
229.65 55.1840
229.70 42.7722
229.75 33.2992
229.80 32.0227
229.85 34.0228
229.90 38.2261
229.95 41.1153
230.00 40.9419
230.05 39.9460
230.10 42.6481
230.15 49.4391
230.20 52.6920
230.25 50.5902
230.30 45.3276
230.35 44.4327
230.40 51.2246
230.45 58.5387
230.50 66.1409
230.55 76.1881
230.60 80.8359
230.65 78.6824
230.70 75.1185
230.75 69.0672
230.80 62.4271
230.85 56.0603
230.90 54.8496
230.95 49.2644
231.00 43.8397
231.05 39.6102
231.10 35.6264
231.15 34.6591
231.20 35.2367
231.25 35.7023
231.30 34.7963
231.35 37.0423
231.40 45.1341
231.45 56.6317
231.50 67.7827
231.55 68.9421
231.60 62.8391
231.65 56.5743
231.70 55.3116
231.75 55.9681
231.80 59.9136
231.85 60.4039
231.90 53.3449
231.95 44.8157
232.00 37.2492
232.05 37.0778
232.10 40.1616
232.15 42.5825
232.20 51.6386
232.25 67.4885
232.30 81.4895
232.35 87.0111
232.40 83.8960
232.45 70.9108
232.50 54.1475
232.55 42.4723
232.60 37.6672
232.65 38.0542
232.70 40.1698
232.75 42.9545
232.80 49.1656
232.85 56.6139
232.90 61.6113
232.95 61.0855
233.00 57.5231
233.05 52.8024
233.10 45.2510
233.15 39.1540
233.20 37.3341
233.25 35.0700
233.30 35.0191
233.35 41.0498
233.40 46.6861
233.45 50.2229
233.50 55.8996
233.55 62.2947
233.60 63.2831
233.65 55.8453
233.70 42.8847
233.75 32.1846
233.80 28.0230
233.85 28.2032
233.90 31.8394
233.95 37.4515
234.00 41.9204
234.05 45.0444
234.10 48.3893
234.15 52.6026
234.20 51.7931
234.25 46.1095
234.30 36.8904
234.35 26.8343
234.40 24.3156
234.45 26.8292
234.50 29.9498
234.55 31.1962
234.60 33.3733
234.65 36.5421
234.70 37.5574
234.75 33.7268
234.80 29.4827
234.85 30.1604
234.90 36.1511
234.95 47.5336
235.00 53.6181
235.05 54.5524
235.10 54.5186
235.15 57.0416
235.20 62.3964
235.25 66.2705
235.30 67.2186
235.35 63.9194
235.40 55.3601
235.45 48.3071
235.50 45.6973
235.55 52.3802
235.60 63.9011
235.65 67.9053
235.70 67.4852
235.75 66.7193
235.80 63.1855
235.85 51.9771
235.90 40.4341
235.95 33.9575
236.00 30.8337
236.05 35.3235
236.10 42.6471
236.15 45.7720
236.20 49.6746
236.25 58.1208
236.30 63.9953
236.35 60.1135
236.40 49.8243
236.45 41.2793
236.50 39.3793
236.55 42.7277
236.60 44.8344
236.65 42.1365
236.70 40.8388
236.75 42.8569
236.80 44.6649
236.85 47.2604
236.90 51.9106
236.95 56.5616
237.00 57.7055
237.05 58.8346
237.10 64.4608
237.15 70.1631
237.20 70.9399
237.25 62.3730
237.30 46.5157
237.35 36.0445
237.40 36.1156
237.45 39.4211
237.50 42.7333
237.55 48.2460
237.60 54.3297
237.65 61.9417
237.70 67.9976
237.75 65.2952
237.80 58.3065
237.85 48.5660
237.90 41.5996
237.95 39.8450
238.00 39.9971
238.05 37.6226
238.10 31.7758
238.15 25.8848
238.20 23.3978
238.25 22.8950
238.30 24.7737
238.35 29.0095
238.40 34.6520
238.45 39.4146
238.50 45.4585
238.55 52.7641
238.60 56.2858
238.65 56.4302
238.70 54.2671
238.75 46.3046
238.80 35.7955
238.85 30.0961
238.90 31.0133
238.95 41.3976
239.00 55.0104
239.05 62.8107
239.10 63.8593
239.15 59.4497
239.20 57.5412
239.25 58.5784
239.30 58.1673
239.35 53.8756
239.40 46.3212
239.45 38.6327
239.50 30.8475
239.55 25.0103
239.60 27.0281
239.65 33.9224
239.70 40.3664
239.75 46.2255
239.80 46.9390
239.85 41.1999
239.90 35.4054
239.95 33.7710
240.00 40.5061
240.05 49.8415
240.10 53.2968
240.15 52.4750
240.20 50.0157
240.25 49.3744
240.30 49.7456
240.35 48.1604
240.40 39.1909
240.45 28.7658
240.50 27.3880
240.55 31.8063
240.60 34.1643
240.65 33.1009
240.70 34.2244
240.75 39.4938
240.80 46.9100
240.85 50.2258
240.90 49.5714
240.95 47.5425
241.00 40.1417
241.05 30.9286
241.10 28.8215
241.15 33.8307
241.20 38.7699
241.25 41.7044
241.30 39.7476
241.35 39.0421
241.40 43.5444
241.45 50.2526
241.50 54.9089
241.55 56.5813
241.60 58.6779
241.65 61.9422
241.70 62.4316
241.75 61.8198
241.80 64.9736
241.85 69.4115
241.90 69.5753
241.95 69.8338
242.00 72.6506
242.05 75.0296
242.10 78.0202
242.15 81.9973
242.20 84.8065
242.25 81.1218
242.30 70.5103
242.35 63.7206
242.40 62.1646
242.45 62.0307
242.50 64.4081
242.55 69.9062
242.60 76.8771
242.65 84.6915
242.70 88.4127
242.75 81.5588
242.80 73.7548
242.85 68.6430
242.90 65.8471
242.95 70.3127
243.00 75.7552
243.05 78.0474
243.10 78.5774
243.15 73.6888
243.20 66.1434
243.25 61.7033
243.30 61.9378
243.35 66.3708
243.40 68.5885
243.45 61.8633
243.50 53.5620
243.55 54.5832
243.60 58.7200
243.65 61.2763
243.70 66.1783
243.75 72.9577
243.80 71.9662
243.85 66.4376
243.90 61.0466
243.95 56.6309
244.00 60.7817
244.05 68.0169
244.10 73.6119
244.15 77.2912
244.20 78.7883
244.25 77.2022
244.30 71.8640
244.35 65.1744
244.40 62.5709
244.45 63.9679
244.50 65.2893
244.55 64.6954
244.60 62.2408
244.65 58.6147
244.70 54.9240
244.75 52.2001
244.80 49.8189
244.85 51.6946
244.90 55.2185
244.95 54.9559
245.00 52.0353
245.05 49.5719
245.10 48.1513
245.15 46.7970
245.20 45.8092
245.25 46.8231
245.30 47.1329
245.35 46.5096
245.40 47.1397
245.45 50.3284
245.50 53.0545
245.55 52.1718
245.60 49.5068
245.65 48.7668
245.70 51.0476
245.75 54.5032
245.80 56.7141
245.85 54.0792
245.90 50.9133
245.95 50.7148
246.00 50.8153
246.05 48.8405
246.10 46.2315
246.15 44.2297
246.20 41.3621
246.25 39.5836
246.30 41.8878
246.35 46.3458
246.40 49.7280
246.45 52.3554
246.50 52.4679
246.55 51.7293
246.60 51.2602
246.65 50.9795
246.70 53.2604
246.75 56.3080
246.80 57.3621
246.85 57.5779
246.90 57.1908
246.95 56.0210
247.00 55.1707
247.05 56.1454
247.10 60.3625
247.15 59.7096
247.20 54.0259
247.25 47.6185
247.30 44.1056
247.35 53.8161
247.40 63.9566
247.45 65.5145
247.50 64.8029
247.55 64.0831
247.60 62.5245
247.65 60.6834
247.70 60.0112
247.75 58.6936
247.80 54.9005
247.85 51.9086
247.90 47.5456
247.95 43.9565
248.00 47.4542
248.05 55.6253
248.10 60.8880
248.15 58.2677
248.20 48.8274
248.25 39.3217
248.30 33.7898
248.35 30.1050
248.40 36.6411
248.45 45.0338
248.50 50.0088
248.55 55.7201
248.60 54.8603
248.65 51.2203
248.70 47.4488
248.75 40.9994
248.80 35.8022
248.85 35.7300
248.90 36.8612
248.95 36.2608
249.00 33.1126
249.05 30.3086
249.10 30.7290
249.15 36.1420
249.20 44.5930
249.25 51.6718
249.30 55.5409
249.35 57.2670
249.40 62.3301
249.45 69.5855
249.50 74.5871
249.55 73.1733
249.60 67.3013
249.65 65.3787
249.70 68.4738
249.75 70.5035
249.80 69.0971
249.85 68.5245
249.90 71.5298
249.95 75.5030
250.00 76.1500
250.05 64.4403
250.10 49.8788
250.15 47.3926
250.20 53.6237
250.25 61.4225
250.30 65.8104
250.35 68.0829
250.40 70.9431
250.45 69.7284
250.50 63.0649
250.55 55.6038
250.60 47.9738
250.65 41.1563
250.70 39.0450
250.75 44.4024
250.80 53.8325
250.85 62.9725
250.90 67.8032
250.95 69.2658
251.00 68.1518
251.05 61.1746
251.10 53.4096
251.15 53.0020
251.20 54.5541
251.25 54.7189
251.30 51.8762
251.35 47.4952
251.40 42.7066
251.45 39.1816
251.50 39.1920
251.55 38.1167
251.60 35.2574
251.65 35.0323
251.70 38.1016
251.75 40.3436
251.80 40.2643
251.85 39.7545
251.90 39.2332
251.95 42.1645
252.00 48.1029
252.05 52.1218
252.10 52.2950
252.15 48.5770
252.20 43.6397
252.25 39.2657
252.30 36.3825
252.35 35.5028
252.40 35.8933
252.45 37.6504
252.50 42.0415
252.55 46.8246
252.60 49.3803
252.65 49.7503
252.70 46.6011
252.75 40.4576
252.80 35.9469
252.85 33.8528
252.90 32.6200
252.95 37.4217
253.00 45.6183
253.05 53.1144
253.10 60.2842
253.15 62.0586
253.20 60.0102
253.25 58.0373
253.30 57.3228
253.35 56.6490
253.40 56.6782
253.45 56.9824
253.50 55.2443
253.55 52.2393
253.60 50.9264
253.65 52.0664
253.70 53.8745
253.75 57.0759
253.80 57.2701
253.85 54.3254
253.90 54.6418
253.95 59.8701
254.00 62.0080
254.05 57.2832
254.10 53.8235
254.15 55.1528
254.20 58.5407
254.25 63.1582
254.30 68.2737
254.35 69.4536
254.40 67.4037
254.45 64.5117
254.50 62.5366
254.55 60.0226
254.60 55.9744
254.65 55.9841
254.70 59.7457
254.75 62.1066
254.80 60.0226
254.85 54.0315
254.90 49.3788
254.95 49.2501
255.00 55.1060
255.05 66.9730
255.10 79.0009
255.15 88.3209
255.20 94.1826
255.25 87.5384
255.30 81.6688
255.35 87.5715
255.40 95.0118
255.45 94.9658
255.50 86.9024
255.55 82.5621
255.60 84.6683
255.65 84.4597
255.70 80.5222
255.75 80.7128
255.80 87.0150
255.85 97.8443
255.90 105.657
255.95 103.413
256.00 98.3326
256.05 96.8804
256.10 93.5623
256.15 85.2573
256.20 76.4434
256.25 68.7746
256.30 66.1453
256.35 71.4608
256.40 80.0574
256.45 88.7708
256.50 101.217
256.55 118.526
256.60 128.376
256.65 126.362
256.70 120.936
256.75 119.251
256.80 119.818
256.85 119.886
256.90 126.803
256.95 137.728
257.00 142.529
257.05 138.411
257.10 132.450
257.15 133.877
257.20 136.271
257.25 137.892
257.30 147.443
257.35 153.785
257.40 145.470
257.45 125.969
257.50 101.631
257.55 79.3285
257.60 70.0907
257.65 78.8106
257.70 93.2001
257.75 107.449
257.80 124.222
257.85 135.329
257.90 142.046
257.95 152.058
258.00 162.595
258.05 170.512
258.10 183.995
258.15 193.474
258.20 163.139
258.25 123.574
258.30 117.220
258.35 128.584
258.40 124.004
258.45 101.154
258.50 84.8803
258.55 70.3361
258.60 63.9315
258.65 78.5413
258.70 99.7582
258.75 112.767
258.80 121.800
258.85 145.619
258.90 173.048
258.95 191.367
259.00 183.032
259.05 153.667
259.10 128.831
259.15 115.021
259.20 120.652
259.25 120.055
259.30 106.813
259.35 88.3890
259.40 80.8524
259.45 99.5230
259.50 119.393
259.55 124.268
259.60 119.528
259.65 110.756
259.70 99.1717
259.75 84.4038
259.80 65.6992
259.85 48.6731
259.90 41.1487
259.95 42.7271
260.00 51.9080
260.05 72.4639
260.10 97.8096
260.15 114.981
260.20 123.682
260.25 127.146
260.30 125.512
260.35 119.798
260.40 114.855
260.45 108.743
260.50 93.4144
260.55 78.1843
260.60 69.7729
260.65 61.5562
260.70 58.6829
260.75 67.7082
260.80 80.6136
260.85 92.3810
260.90 101.750
260.95 106.335
261.00 108.548
261.05 100.498
261.10 79.7207
261.15 61.8225
261.20 55.9271
261.25 61.0396
261.30 67.7485
261.35 67.3543
261.40 65.5376
261.45 76.2238
261.50 100.057
261.55 120.206
261.60 125.793
261.65 122.443
261.70 106.481
261.75 85.6021
261.80 79.2089
261.85 87.7340
261.90 110.873
261.95 130.587
262.00 131.522
262.05 122.492
262.10 113.767
262.15 109.868
262.20 118.916
262.25 133.630
262.30 136.875
262.35 136.553
262.40 140.193
262.45 137.889
262.50 120.490
262.55 96.3196
262.60 88.1412
262.65 97.6364
262.70 107.716
262.75 102.594
262.80 88.5468
262.85 84.2088
262.90 91.0239
262.95 98.1250
263.00 91.8108
263.05 77.1706
263.10 65.2523
263.15 62.5458
263.20 74.1097
263.25 92.7047
263.30 113.239
263.35 134.479
263.40 160.019
263.45 176.789
263.50 177.586
263.55 175.699
263.60 191.346
263.65 213.437
263.70 226.307
263.75 249.903
263.80 282.362
263.85 298.763
263.90 295.032
263.95 274.999
264.00 251.192
264.05 239.012
264.10 234.075
264.15 236.063
264.20 273.853
264.25 329.593
264.30 353.027
264.35 348.663
264.40 319.743
264.45 283.195
264.50 268.202
264.55 256.615
264.60 242.295
264.65 237.325
264.70 235.588
264.75 224.163
264.80 202.202
264.85 183.873
264.90 188.295
264.95 206.233
265.00 217.606
265.05 219.960
265.10 219.773
265.15 224.038
265.20 231.889
265.25 246.319
265.30 256.940
265.35 255.145
265.40 268.879
265.45 307.511
265.50 328.594
265.55 311.417
265.60 284.012
265.65 283.014
265.70 297.868
265.75 296.394
265.80 279.701
265.85 262.796
265.90 272.162
265.95 294.255
266.00 299.037
266.05 292.753
266.10 267.799
266.15 238.730
266.20 235.046
266.25 250.941
266.30 243.123
266.35 216.451
266.40 209.262
266.45 238.616
266.50 277.927
266.55 277.645
266.60 239.136
266.65 209.019
266.70 231.876
266.75 276.766
266.80 278.716
266.85 260.858
266.90 239.067
266.95 225.556
267.00 251.382
267.05 286.911
267.10 304.741
267.15 256.818
267.20 192.572
267.25 190.521
267.30 199.813
267.35 249.779
267.40 307.657
267.45 323.615
267.50 326.050
267.55 316.737
267.60 305.040
267.65 290.045
267.70 263.610
267.75 244.451
267.80 226.531
267.85 209.957
267.90 208.301
267.95 220.342
268.00 239.463
268.05 255.120
268.10 266.497
268.15 272.320
268.20 270.323
268.25 264.188
268.30 256.292
268.35 249.910
268.40 242.100
268.45 241.101
268.50 251.315
268.55 266.424
268.60 277.942
268.65 280.045
268.70 278.018
268.75 266.004
268.80 248.867
268.85 235.474
268.90 222.126
268.95 208.863
269.00 207.559
269.05 220.049
269.10 236.504
269.15 251.318
269.20 258.915
269.25 260.284
269.30 263.201
269.35 274.583
269.40 276.842
269.45 241.908
269.50 196.733
269.55 181.001
269.60 193.890
269.65 225.223
269.70 249.565
269.75 245.000
269.80 231.834
269.85 224.277
269.90 258.831
269.95 313.278
270.00 342.384
270.05 330.968
270.10 286.007
270.15 253.550
270.20 259.581
270.25 285.934
270.30 300.449
270.35 297.935
270.40 299.302
270.45 328.831
270.50 339.290
270.55 298.869
270.60 260.949
270.65 246.508
270.70 254.446
270.75 265.588
270.80 261.390
270.85 250.087
270.90 253.984
270.95 268.853
271.00 271.800
271.05 267.860
271.10 254.067
271.15 258.598
271.20 277.548
271.25 305.707
271.30 321.509
271.35 271.931
271.40 211.013
271.45 187.865
271.50 193.486
271.55 228.398
271.60 253.541
271.65 261.707
271.70 259.307
271.75 231.514
271.80 184.984
271.85 144.267
271.90 119.615
271.95 118.733
272.00 125.656
272.05 132.518
272.10 142.550
272.15 174.020
272.20 205.251
272.25 214.879
272.30 208.340
272.35 188.370
272.40 181.286
272.45 188.625
272.50 199.785
272.55 212.915
272.60 215.379
272.65 208.608
272.70 195.640
272.75 187.617
272.80 224.304
272.85 262.361
272.90 301.380
272.95 334.107
273.00 309.942
273.05 265.865
273.10 251.841
273.15 260.876
273.20 264.504
273.25 248.972
273.30 212.023
273.35 184.581
273.40 186.781
273.45 201.716
273.50 209.747
273.55 210.454
273.60 199.013
273.65 167.341
273.70 134.158
273.75 132.734
273.80 162.431
273.85 170.689
273.90 148.469
273.95 124.758
274.00 126.541
274.05 151.437
274.10 163.839
274.15 157.662
274.20 135.331
274.25 109.166
274.30 98.9159
274.35 99.8887
274.40 113.433
274.45 143.323
274.50 173.274
274.55 181.801
274.60 147.461
274.65 112.554
274.70 107.920
274.75 125.749
274.80 148.423
274.85 142.064
274.90 111.498
274.95 89.8411
275.00 93.2371
275.05 121.328
275.10 166.488
275.15 206.698
275.20 231.526
275.25 240.507
275.30 226.669
275.35 204.122
275.40 185.199
275.45 167.574
275.50 140.691
275.55 113.991
275.60 103.946
275.65 123.060
275.70 166.331
275.75 218.859
275.80 265.753
275.85 306.596
275.90 305.715
275.95 277.022
276.00 264.730
276.05 268.712
276.10 255.861
276.15 222.119
276.20 190.408
276.25 186.596
276.30 219.662
276.35 254.975
276.40 273.083
276.45 295.187
276.50 314.111
276.55 307.581
276.60 280.302
276.65 256.958
276.70 249.604
276.75 246.824
276.80 237.805
276.85 226.075
276.90 219.208
276.95 234.202
277.00 263.808
277.05 284.401
277.10 291.735
277.15 278.190
277.20 251.972
277.25 244.077
277.30 268.297
277.35 295.976
277.40 299.229
277.45 287.101
277.50 272.107
277.55 256.816
277.60 237.786
277.65 222.812
277.70 223.645
277.75 220.685
277.80 195.545
277.85 176.949
277.90 173.433
277.95 171.448
278.00 169.459
278.05 169.825
278.10 171.170
278.15 175.689
278.20 182.676
278.25 179.405
278.30 170.978
278.35 166.959
278.40 173.129
278.45 181.915
278.50 185.273
278.55 185.845
278.60 184.084
278.65 182.354
278.70 177.737
278.75 161.183
278.80 144.586
278.85 137.021
278.90 135.188
278.95 129.657
279.00 120.922
279.05 112.476
279.10 104.436
279.15 102.128
279.20 95.8008
279.25 89.0447
279.30 80.6262
279.35 72.9253
279.40 66.8666
279.45 66.7834
279.50 84.2647
279.55 99.6628
279.60 94.0987
279.65 73.1124
279.70 61.6067
279.75 62.9862
279.80 66.6568
279.85 74.3290
279.90 82.7943
279.95 87.8641
280.00 87.9615
280.05 81.8196
280.10 72.6980
280.15 72.4834
280.20 78.3242
280.25 86.3476
280.30 84.7995
280.35 76.8439
280.40 73.3539
280.45 80.1617
280.50 94.9200
280.55 107.028
280.60 112.484
280.65 119.202
280.70 129.024
280.75 141.502
280.80 151.597
280.85 160.499
280.90 171.648
280.95 180.015
281.00 181.841
281.05 179.561
281.10 178.025
281.15 179.205
281.20 181.031
281.25 180.516
281.30 189.385
281.35 222.764
281.40 244.112
281.45 262.225
281.50 270.781
281.55 264.057
281.60 256.137
281.65 249.548
281.70 248.457
281.75 257.166
281.80 269.577
281.85 277.648
281.90 289.113
281.95 303.962
282.00 310.067
282.05 309.482
282.10 302.714
282.15 296.635
282.20 291.986
282.25 296.052
282.30 314.246
282.35 338.560
282.40 358.201
282.45 341.469
282.50 300.332
282.55 283.161
282.60 292.312
282.65 307.426
282.70 316.282
282.75 317.783
282.80 322.231
282.85 329.737
282.90 343.617
282.95 363.103
283.00 365.485
283.05 361.168
283.10 359.202
283.15 352.600
283.20 337.525
283.25 329.474
283.30 345.368
283.35 352.181
283.40 333.797
283.45 302.030
283.50 263.543
283.55 240.162
283.60 282.538
283.65 338.047
283.70 364.032
283.75 370.533
283.80 363.979
283.85 352.888
283.90 348.536
283.95 337.522
284.00 306.665
284.05 285.206
284.10 295.452
284.15 325.782
284.20 335.337
284.25 295.515
284.30 243.011
284.35 218.839
284.40 247.962
284.45 296.081
284.50 296.121
284.55 269.712
284.60 242.099
284.65 223.844
284.70 207.460
284.75 194.519
284.80 173.644
284.85 150.554
284.90 133.958
284.95 123.645
285.00 110.454
285.05 95.1625
285.10 78.9791
285.15 64.8328
285.20 53.6260
285.25 52.5055
285.30 66.8546
285.35 84.0633
285.40 100.206
285.45 120.023
285.50 136.788
285.55 148.818
285.60 160.758
285.65 181.666
285.70 209.419
285.75 223.349
285.80 224.170
285.85 239.097
285.90 283.208
285.95 319.780
286.00 336.222
286.05 334.317
286.10 333.246
286.15 339.192
286.20 339.711
286.25 332.754
286.30 344.418
286.35 363.273
286.40 379.343
286.45 379.347
286.50 366.248
286.55 370.461
286.60 380.879
286.65 370.170
286.70 335.190
286.75 315.657
286.80 314.108
286.85 307.189
286.90 299.309
286.95 322.553
287.00 370.135
287.05 411.282
287.10 446.904
287.15 464.280
287.20 449.869
287.25 433.243
287.30 403.572
287.35 368.489
287.40 360.396
287.45 376.620
287.50 383.245
287.55 358.632
287.60 334.024
287.65 334.367
287.70 360.326
287.75 373.214
287.80 355.383
287.85 322.107
287.90 282.826
287.95 253.471
288.00 228.294
288.05 185.530
288.10 149.708
288.15 129.766
288.20 152.149
288.25 198.200
288.30 239.819
288.35 287.511
288.40 361.757
288.45 412.737
288.50 443.473
288.55 449.411
288.60 434.579
288.65 422.026
288.70 414.996
288.75 408.206
288.80 411.766
288.85 421.987
288.90 419.145
288.95 408.043
289.00 411.814
289.05 416.273
289.10 413.797
289.15 418.842
289.20 425.127
289.25 426.657
289.30 425.662
289.35 424.604
289.40 433.004
289.45 454.000
289.50 488.910
289.55 527.572
289.60 549.963
289.65 548.768
289.70 546.147
289.75 541.680
289.80 536.457
289.85 545.204
289.90 583.760
289.95 630.472
290.00 675.138
290.05 687.081
290.10 652.053
290.15 598.854
290.20 567.846
290.25 607.235
290.30 663.878
290.35 689.101
290.40 694.337
290.45 688.290
290.50 673.786
290.55 651.340
290.60 621.396
290.65 611.759
290.70 604.764
290.75 595.243
290.80 581.436
290.85 575.068
290.90 579.249
290.95 588.216
291.00 588.281
291.05 580.954
291.10 586.822
291.15 597.035
291.20 616.070
291.25 672.754
291.30 722.760
291.35 698.561
291.40 632.211
291.45 585.085
291.50 546.462
291.55 542.085
291.60 557.516
291.65 579.785
291.70 573.645
291.75 542.214
291.80 521.462
291.85 546.172
291.90 580.836
291.95 594.268
292.00 588.335
292.05 581.011
292.10 593.565
292.15 602.203
292.20 597.585
292.25 583.685
292.30 531.813
292.35 489.571
292.40 488.667
292.45 503.756
292.50 495.486
292.55 458.686
292.60 441.097
292.65 447.616
292.70 483.821
292.75 502.970
292.80 458.959
292.85 407.807
292.90 406.210
292.95 526.681
293.00 634.016
293.05 662.772
293.10 655.516
293.15 669.489
293.20 676.839
293.25 657.190
293.30 618.230
293.35 597.791
293.40 630.034
293.45 671.308
293.50 698.293
293.55 655.816
293.60 514.082
293.65 383.811
293.70 343.626
293.75 386.458
293.80 450.872
293.85 479.154
293.90 475.860
293.95 504.043
294.00 547.017
294.05 540.373
294.10 495.759
294.15 469.161
294.20 546.495
294.25 625.781
294.30 633.477
294.35 588.021
294.40 532.924
294.45 513.826
294.50 541.117
294.55 617.201
294.60 679.365
294.65 632.119
294.70 521.199
294.75 401.384
294.80 322.447
294.85 327.065
294.90 370.613
294.95 422.058
295.00 497.976
295.05 574.777
295.10 627.330
295.15 663.742
295.20 687.135
295.25 689.233
295.30 613.116
295.35 493.430
295.40 441.166
295.45 529.935
295.50 620.476
295.55 649.800
295.60 629.070
295.65 544.583
295.70 494.961
295.75 499.932
295.80 596.166
295.85 676.082
295.90 671.959
295.95 624.621
296.00 573.605
296.05 560.141
296.10 573.544
296.15 613.974
296.20 661.098
296.25 715.386
296.30 730.167
296.35 698.533
296.40 644.254
296.45 515.698
296.50 401.629
296.55 348.477
296.60 324.097
296.65 289.654
296.70 322.030
296.75 405.819
296.80 474.937
296.85 508.278
296.90 445.960
296.95 364.206
297.00 320.427
297.05 362.454
297.10 479.980
297.15 553.459
297.20 542.238
297.25 467.953
297.30 365.358
297.35 388.517
297.40 483.810
297.45 595.263
297.50 653.778
297.55 633.787
297.60 605.927
297.65 641.733
297.70 753.784
297.75 824.704
297.80 817.105
297.85 732.149
297.90 627.837
297.95 576.023
298.00 562.668
298.05 537.779
298.10 458.857
298.15 384.947
298.20 386.293
298.25 422.779
298.30 395.417
298.35 322.318
298.40 288.991
298.45 298.839
298.50 310.673
298.55 334.058
298.60 386.540
298.65 427.383
298.70 431.465
298.75 432.155
298.80 464.284
298.85 514.256
298.90 567.350
298.95 640.149
299.00 706.408
299.05 718.687
299.10 696.925
299.15 637.971
299.20 588.960
299.25 574.488
299.30 578.693
299.35 498.753
299.40 385.165
299.45 321.784
299.50 336.723
299.55 458.313
299.60 578.566
299.65 632.692
299.70 664.061
299.75 696.539
299.80 659.941
299.85 572.534
299.90 469.356
299.95 369.510
300.00 305.720
300.05 285.566
300.10 286.355
300.15 312.709
300.20 317.969
300.25 301.282
300.30 283.849
300.35 356.952
300.40 477.596
300.45 561.838
300.50 592.003
300.55 602.932
300.60 536.866
300.65 472.269
300.70 421.746
300.75 380.274
300.80 357.791
300.85 369.835
300.90 408.278
300.95 446.776
301.00 528.539
301.05 615.515
301.10 613.796
301.15 551.345
301.20 505.857
301.25 544.269
301.30 587.862
301.35 591.611
301.40 583.768
301.45 575.900
301.50 576.340
301.55 571.843
301.60 567.654
301.65 528.885
301.70 484.500
301.75 433.992
301.80 398.541
301.85 371.851
301.90 350.877
301.95 313.363
302.00 257.425
302.05 186.154
302.10 248.020
302.15 294.420
302.20 428.728
302.25 563.992
302.30 625.530
302.35 629.928
302.40 586.592
302.45 536.081
302.50 481.029
302.55 416.065
302.60 425.615
302.65 525.102
302.70 681.577
302.75 784.389
302.80 830.222
302.85 784.117
302.90 708.661
302.95 654.661
303.00 632.677
303.05 617.140
303.10 591.455
303.15 637.122
303.20 692.371
303.25 762.253
303.30 806.724
303.35 781.983
303.40 752.357
303.45 760.033
303.50 783.654
303.55 796.068
303.60 788.162
303.65 661.620
303.70 481.649
303.75 422.092
303.80 422.949
303.85 513.452
303.90 633.981
303.95 657.439
304.00 633.632
304.05 618.734
304.10 558.547
304.15 501.340
304.20 534.210
304.25 532.672
304.30 607.080
304.35 707.973
304.40 747.435
304.45 744.581
304.50 753.843
304.55 748.195
304.60 761.041
304.65 668.242
304.70 541.042
304.75 455.786
304.80 449.788
304.85 532.080
304.90 653.010
304.95 722.511
305.00 693.956
305.05 651.117
305.10 679.788
305.15 817.507
305.20 845.252
305.25 851.510
305.30 839.967
305.35 679.520
305.40 572.026
305.45 598.701
305.50 628.713
305.55 653.669
305.60 673.194
305.65 599.732
305.70 457.586
305.75 369.048
305.80 338.999
305.85 340.999
305.90 367.520
305.95 407.622
306.00 540.922
306.05 650.161
306.10 697.406
306.15 736.322
306.20 746.982
306.25 725.110
306.30 710.492
306.35 634.278
306.40 552.786
306.45 556.674
306.50 595.943
306.55 622.123
306.60 545.669
306.65 474.413
306.70 430.016
306.75 438.794
306.80 511.032
306.85 603.018
306.90 682.054
306.95 731.924
307.00 746.956
307.05 731.855
307.10 732.874
307.15 675.958
307.20 639.071
307.25 657.589
307.30 682.473
307.35 697.862
307.40 716.013
307.45 651.176
307.50 582.299
307.55 534.366
307.60 580.223
307.65 687.819
307.70 733.774
307.75 711.004
307.80 653.723
307.85 642.970
307.90 712.193
307.95 766.235
308.00 756.915
308.05 725.657
308.10 637.452
308.15 560.023
308.20 532.155
308.25 533.882
308.30 575.278
308.35 577.756
308.40 666.013
308.45 785.521
308.50 839.283
308.55 825.912
308.60 814.469
308.65 744.661
308.70 646.195
308.75 594.291
308.80 580.505
308.85 607.220
308.90 647.449
308.95 640.622
309.00 611.232
309.05 574.414
309.10 517.668
309.15 475.401
309.20 461.806
309.25 417.931
309.30 388.453
309.35 382.376
309.40 456.566
309.45 591.521
309.50 669.958
309.55 622.955
309.60 574.050
309.65 501.495
309.70 434.925
309.75 481.750
309.80 562.650
309.85 607.319
309.90 572.391
309.95 456.438
310.00 346.590
310.05 296.848
310.10 304.515
310.15 333.745
310.20 408.349
310.25 497.874
310.30 616.362
310.35 733.583
310.40 782.935
310.45 778.360
310.50 760.076
310.55 736.229
310.60 753.292
310.65 770.137
310.70 803.976
310.75 843.704
310.80 891.817
310.85 911.162
310.90 910.401
310.95 850.654
311.00 785.826
311.05 738.687
311.10 746.835
311.15 791.384
311.20 837.936
311.25 871.049
311.30 891.142
311.35 846.245
311.40 770.680
311.45 746.014
311.50 784.222
311.55 820.755
311.60 807.402
311.65 716.689
311.70 655.875
311.75 651.051
311.80 644.386
311.85 639.878
311.90 633.706
311.95 616.955
312.00 605.336
312.05 605.352
312.10 609.233
312.15 601.957
312.20 606.645
312.25 666.540
312.30 714.613
312.35 770.797
312.40 805.308
312.45 769.367
312.50 696.027
312.55 633.356
312.60 624.833
312.65 672.804
312.70 719.833
312.75 746.128
312.80 741.335
312.85 729.721
312.90 729.579
312.95 748.969
313.00 746.688
313.05 718.904
313.10 702.199
313.15 704.900
313.20 703.933
313.25 702.173
313.30 697.349
313.35 682.248
313.40 647.573
313.45 659.761
313.50 709.731
313.55 746.136
313.60 737.497
313.65 737.711
313.70 767.095
313.75 802.988
313.80 859.400
313.85 900.306
313.90 886.238
313.95 852.354
314.00 822.944
314.05 822.067
314.10 860.118
314.15 867.131
314.20 876.807
314.25 740.686
314.30 577.815
314.35 471.425
314.40 398.726
314.45 360.771
314.50 470.451
314.55 576.085
314.60 621.280
314.65 653.567
314.70 649.857
314.75 660.805
314.80 670.244
314.85 763.948
314.90 831.438
314.95 820.230
315.00 796.910
315.05 760.151
315.10 762.546
315.15 764.327
315.20 758.518
315.25 770.219
315.30 780.572
315.35 788.438
315.40 763.489
315.45 731.069
315.50 723.343
315.55 729.918
315.60 698.737
315.65 681.243
315.70 570.177
315.75 470.522
315.80 440.467
315.85 430.716
315.90 433.362
315.95 461.871
316.00 485.608
316.05 491.055
316.10 486.388
316.15 504.020
316.20 548.497
316.25 616.211
316.30 674.420
316.35 708.058
316.40 702.107
316.45 678.331
316.50 565.072
316.55 626.124
316.60 691.748
316.65 695.719
316.70 727.630
316.75 766.014
316.80 736.624
316.85 691.808
316.90 686.810
316.95 734.292
317.00 822.834
317.05 887.108
317.10 933.595
317.15 962.467
317.20 952.833
317.25 953.661
317.30 945.840
317.35 921.780
317.40 878.331
317.45 848.032
317.50 834.714
317.55 860.662
317.60 923.241
317.65 939.638
317.70 948.636
317.75 899.062
317.80 774.253
317.85 677.982
317.90 607.701
317.95 542.878
318.00 524.584
318.05 545.172
318.10 550.190
318.15 539.675
318.20 546.764
318.25 581.486
318.30 599.755
318.35 618.206
318.40 643.308
318.45 660.027
318.50 681.621
318.55 704.927
318.60 739.510
318.65 743.257
318.70 730.875
318.75 742.901
318.80 765.903
318.85 825.055
318.90 925.872
318.95 977.086
319.00 910.902
319.05 803.615
319.10 713.246
319.15 662.739
319.20 577.655
319.25 493.899
319.30 517.487
319.35 559.743
319.40 628.667
319.45 695.198
319.50 716.598
319.55 720.311
319.60 722.063
319.65 701.819
319.70 688.174
319.75 758.736
319.80 809.215
319.85 875.764
319.90 943.354
319.95 914.993
320.00 793.823
320.05 754.439
320.10 810.173
320.15 878.740
320.20 885.046
320.25 854.033
320.30 864.967
320.35 887.415
320.40 944.670
320.45 982.950
320.50 946.907
320.55 910.989
320.60 924.654
320.65 949.285
320.70 961.973
320.75 935.283
320.80 869.797
320.85 790.577
320.90 752.759
320.95 710.865
321.00 707.093
321.05 667.757
321.10 617.671
321.15 599.981
321.20 593.900
321.25 597.683
321.30 612.860
321.35 580.855
321.40 558.912
321.45 591.848
321.50 662.799
321.55 732.905
321.60 759.671
321.65 743.691
321.70 705.326
321.75 727.550
321.80 811.786
321.85 898.662
321.90 908.323
321.95 881.807
322.00 860.327
322.05 895.713
322.10 885.487
322.15 799.845
322.20 707.568
322.25 664.613
322.30 672.843
322.35 774.203
322.40 838.680
322.45 840.181
322.50 781.094
322.55 677.258
322.60 623.565
322.65 629.313
322.70 648.177
322.75 626.874
322.80 586.978
322.85 561.859
322.90 548.869
322.95 541.496
323.00 587.486
323.05 610.729
323.10 673.280
323.15 761.419
323.20 795.831
323.25 803.104
323.30 775.113
323.35 713.844
323.40 623.031
323.45 597.794
323.50 620.022
323.55 676.627
323.60 669.657
323.65 629.225
323.70 639.252
323.75 722.495
323.80 780.812
323.85 808.464
323.90 747.090
323.95 695.527
324.00 794.692
324.05 876.850
324.10 903.757
324.15 864.217
324.20 826.297
324.25 813.166
324.30 793.818
324.35 791.034
324.40 778.047
324.45 815.790
324.50 859.001
324.55 888.979
324.60 922.911
324.65 888.193
324.70 856.975
324.75 776.707
324.80 713.684
324.85 711.890
324.90 734.688
324.95 761.392
325.00 772.661
325.05 767.356
325.10 769.209
325.15 796.291
325.20 825.918
325.25 840.516
325.30 837.569
325.35 832.430
325.40 805.153
325.45 895.561
325.50 979.851
325.55 1058.50
325.60 1064.47
325.65 1039.08
325.70 1004.97
325.75 990.001
325.80 991.746
325.85 1052.53
325.90 1100.42
325.95 1110.27
326.00 1109.02
326.05 1067.95
326.10 1053.12
326.15 1020.62
326.20 1007.29
326.25 1040.95
326.30 1067.64
326.35 1037.95
326.40 955.688
326.45 887.310
326.50 869.946
326.55 907.134
326.60 963.190
326.65 1053.89
326.70 1092.10
326.75 1078.50
326.80 1077.89
326.85 1075.51
326.90 1068.47
326.95 1048.29
327.00 1025.32
327.05 987.937
327.10 909.796
327.15 881.630
327.20 933.701
327.25 980.195
327.30 1039.05
327.35 1026.14
327.40 1013.46
327.45 1026.11
327.50 1064.07
327.55 1062.62
327.60 1029.09
327.65 961.141
327.70 945.320
327.75 953.593
327.80 985.299
327.85 983.065
327.90 950.666
327.95 924.169
328.00 923.807
328.05 954.353
328.10 994.698
328.15 982.046
328.20 962.327
328.25 918.761
328.30 934.557
328.35 973.388
328.40 1000.18
328.45 1021.85
328.50 962.202
328.55 922.073
328.60 861.515
328.65 812.980
328.70 752.595
328.75 774.711
328.80 836.597
328.85 898.890
328.90 979.327
328.95 1073.80
329.00 1143.13
329.05 1146.80
329.10 1117.05
329.15 1088.88
329.20 1068.95
329.25 1079.23
329.30 1102.21
329.35 1163.92
329.40 1192.53
329.45 1194.43
329.50 1149.43
329.55 1111.86
329.60 1121.92
329.65 1138.30
329.70 1158.34
329.75 1157.64
329.80 1135.50
329.85 1108.74
329.90 1107.03
329.95 1163.84
330.00 1267.53
330.05 1333.19
330.10 1302.48
330.15 1217.68
330.20 1101.72
330.25 994.846
330.30 965.691
330.35 1014.87
330.40 1076.80
330.45 1029.78
330.50 1009.61
330.55 930.553
330.60 824.679
330.65 778.553
330.70 823.882
330.75 897.505
330.80 992.023
330.85 1048.70
330.90 1068.51
330.95 1081.53
331.00 1068.23
331.05 1051.67
331.10 1059.60
331.15 1064.58
331.20 1046.78
331.25 1003.91
331.30 989.423
331.35 966.108
331.40 938.820
331.45 891.567
331.50 874.969
331.55 901.131
331.60 974.203
331.65 1041.20
331.70 1063.05
331.75 1069.78
331.80 1087.12
331.85 1089.56
331.90 1092.17
331.95 1075.60
332.00 1041.79
332.05 1028.25
332.10 1008.16
332.15 1030.46
332.20 957.548
332.25 862.655
332.30 805.910
332.35 789.337
332.40 863.922
332.45 942.196
332.50 1040.85
332.55 1090.91
332.60 1124.95
332.65 1078.12
332.70 1015.81
332.75 982.747
332.80 992.852
332.85 966.609
332.90 920.294
332.95 875.569
333.00 864.691
333.05 956.347
333.10 1035.64
333.15 1076.44
333.20 1043.04
333.25 1024.04
333.30 1047.14
333.35 1083.53
333.40 1042.06
333.45 957.978
333.50 902.253
333.55 827.544
333.60 775.991
333.65 744.028
333.70 781.664
333.75 821.676
333.80 900.209
333.85 972.280
333.90 1002.75
333.95 966.355
334.00 971.148
334.05 973.948
334.10 993.102
334.15 972.972
334.20 955.458
334.25 912.202
334.30 983.931
334.35 1053.83
334.40 1093.50
334.45 1099.70
334.50 1094.85
334.55 1098.47
334.60 1113.01
334.65 1098.79
334.70 1081.39
334.75 1063.28
334.80 1052.37
334.85 938.502
334.90 792.220
334.95 701.248
335.00 738.891
335.05 833.271
335.10 1012.73
335.15 1092.15
335.20 1108.30
335.25 1106.41
335.30 1095.15
335.35 1051.08
335.40 1021.96
335.45 1033.01
335.50 1087.65
335.55 1157.67
335.60 1159.11
335.65 1149.79
335.70 1128.97
335.75 1092.87
335.80 1039.37
335.85 900.765
335.90 740.280
335.95 606.795
336.00 527.253
336.05 493.489
336.10 469.835
336.15 493.997
336.20 618.732
336.25 681.441
336.30 841.230
336.35 957.611
336.40 1011.31
336.45 1035.06
336.50 1087.95
336.55 1080.49
336.60 1018.36
336.65 952.570
336.70 910.884
336.75 833.655
336.80 783.039
336.85 769.881
336.90 723.456
336.95 680.153
337.00 694.590
337.05 731.728
337.10 755.489
337.15 736.100
337.20 702.976
337.25 690.834
337.30 705.927
337.35 785.028
337.40 867.740
337.45 888.421
337.50 964.711
337.55 1065.62
337.60 1136.22
337.65 1154.08
337.70 1147.20
337.75 1139.62
337.80 1072.90
337.85 957.452
337.90 891.786
337.95 811.815
338.00 686.484
338.05 643.886
338.10 663.631
338.15 833.756
338.20 980.460
338.25 1010.77
338.30 989.233
338.35 932.164
338.40 924.498
338.45 953.814
338.50 1016.31
338.55 1047.88
338.60 1083.35
338.65 1140.51
338.70 1122.93
338.75 1087.70
338.80 939.769
338.85 893.587
338.90 1001.27
338.95 1095.28
339.00 1157.76
339.05 1117.94
339.10 1012.13
339.15 963.303
339.20 848.779
339.25 771.417
339.30 721.662
339.35 723.347
339.40 797.861
339.45 895.636
339.50 951.105
339.55 991.158
339.60 1015.53
339.65 1041.40
339.70 1077.70
339.75 1104.82
339.80 1118.23
339.85 1133.20
339.90 1142.66
339.95 1127.61
340.00 1195.79
340.05 1273.46
340.10 1264.86
340.15 1120.32
340.20 1082.28
340.25 1065.72
340.30 1068.95
340.35 1079.77
340.40 1042.81
340.45 1012.64
340.50 1006.96
340.55 1005.75
340.60 1036.67
340.65 1033.55
340.70 941.120
340.75 890.464
340.80 911.361
340.85 944.993
340.90 950.702
340.95 937.572
341.00 944.701
341.05 992.987
341.10 1067.84
341.15 1112.85
341.20 1066.65
341.25 1063.45
341.30 888.188
341.35 834.232
341.40 774.250
341.45 709.712
341.50 717.692
341.55 805.180
341.60 861.322
341.65 973.400
341.70 1007.37
341.75 983.536
341.80 979.813
341.85 1009.26
341.90 1097.89
341.95 1168.20
342.00 1199.70
342.05 1196.73
342.10 1148.93
342.15 1109.11
342.20 1100.50
342.25 1018.64
342.30 923.471
342.35 873.761
342.40 860.925
342.45 894.766
342.50 1012.53
342.55 1081.76
342.60 1089.82
342.65 1054.59
342.70 943.192
342.75 924.110
342.80 980.617
342.85 998.690
342.90 1089.11
342.95 1198.04
343.00 1262.48
343.05 1251.12
343.10 1223.20
343.15 1134.22
343.20 1060.10
343.25 990.906
343.30 938.597
343.35 843.604
343.40 871.637
343.45 977.170
343.50 1128.21
343.55 1183.57
343.60 1147.04
343.65 1084.70
343.70 1013.47
343.75 940.509
343.80 927.364
343.85 952.352
343.90 975.517
343.95 874.698
344.00 800.717
344.05 656.727
344.10 504.557
344.15 511.333
344.20 568.695
344.25 639.887
344.30 668.337
344.35 648.320
344.40 660.128
344.45 723.649
344.50 768.474
344.55 830.951
344.60 813.015
344.65 785.089
344.70 803.562
344.75 887.127
344.80 959.176
344.85 981.191
344.90 993.345
344.95 1004.90
345.00 1069.71
345.05 1148.38
345.10 1199.05
345.15 1123.82
345.20 1030.47
345.25 909.752
345.30 847.316
345.35 857.381
345.40 992.452
345.45 1135.16
345.50 1190.57
345.55 1159.72
345.60 1073.01
345.65 1039.65
345.70 1015.79
345.75 1006.96
345.80 928.341
345.85 850.554
345.90 831.747
345.95 841.788
346.00 822.779
346.05 793.767
346.10 774.681
346.15 751.158
346.20 775.236
346.25 855.441
346.30 981.317
346.35 1032.53
346.40 1100.42
346.45 1136.69
346.50 1090.86
346.55 1025.82
346.60 865.922
346.65 849.734
346.70 912.985
346.75 1025.06
346.80 1099.00
346.85 1121.67
346.90 1060.93
346.95 1038.32
347.00 1107.95
347.05 1180.25
347.10 1200.82
347.15 1174.64
347.20 1011.58
347.25 930.501
347.30 929.000
347.35 929.711
347.40 897.378
347.45 836.978
347.50 750.306
347.55 698.215
347.60 670.297
347.65 677.982
347.70 733.222
347.75 840.167
347.80 932.288
347.85 1017.68
347.90 1059.51
347.95 1053.18
348.00 1046.99
348.05 1032.54
348.10 1023.76
348.15 1034.73
348.20 1015.92
348.25 963.486
348.30 886.178
348.35 854.476
348.40 861.205
348.45 892.626
348.50 895.823
348.55 899.994
348.60 933.533
348.65 1062.49
348.70 1172.32
348.75 1211.00
348.80 1128.91
348.85 1031.60
348.90 866.020
348.95 806.252
349.00 766.388
349.05 721.992
349.10 784.392
349.15 906.405
349.20 915.104
349.25 838.384
349.30 787.316
349.35 895.795
349.40 997.611
349.45 1042.11
349.50 962.025
349.55 888.747
349.60 836.151
349.65 773.446
349.70 722.367
349.75 741.795
349.80 831.744
349.85 960.840
349.90 1150.42
349.95 1211.45
350.00 1199.04
350.05 1172.77
350.10 1150.36
350.15 1147.25
350.20 1135.18
350.25 1159.37
350.30 1253.37
350.35 1313.02
350.40 1302.60
350.45 1157.22
350.50 1078.22
350.55 1036.40
350.60 1026.78
350.65 1025.62
350.70 1068.98
350.75 1133.56
350.80 1180.97
350.85 1184.85
350.90 1144.83
350.95 1040.04
351.00 901.793
351.05 905.804
351.10 972.388
351.15 1019.92
351.20 1011.49
351.25 985.368
351.30 902.804
351.35 837.422
351.40 801.525
351.45 780.290
351.50 811.100
351.55 945.113
351.60 1059.56
351.65 1131.60
351.70 1187.63
351.75 1260.49
351.80 1259.11
351.85 1229.86
351.90 1192.94
351.95 1120.18
352.00 1051.76
352.05 986.891
352.10 936.734
352.15 921.213
352.20 963.039
352.25 971.683
352.30 943.124
352.35 828.859
352.40 744.516
352.45 721.944
352.50 720.943
352.55 706.685
352.60 660.774
352.65 672.668
352.70 796.266
352.75 959.120
352.80 1069.64
352.85 1152.19
352.90 1152.46
352.95 1119.05
353.00 1094.75
353.05 1122.81
353.10 1118.68
353.15 1084.58
353.20 964.757
353.25 889.769
353.30 926.853
353.35 1015.24
353.40 1152.63
353.45 1213.35
353.50 1192.51
353.55 1156.13
353.60 1111.65
353.65 1084.53
353.70 1067.05
353.75 1055.66
353.80 1083.29
353.85 1203.71
353.90 1291.35
353.95 1316.65
354.00 1229.89
354.05 1100.19
354.10 1018.86
354.15 1004.52
354.20 1034.69
354.25 1087.54
354.30 1142.83
354.35 1196.74
354.40 1222.94
354.45 1220.56
354.50 1186.34
354.55 1166.01
354.60 1182.85
354.65 1198.15
354.70 1152.39
354.75 1130.61
354.80 1085.67
354.85 1127.92
354.90 1223.75
354.95 1241.52
355.00 1236.18
355.05 1203.29
355.10 1168.33
355.15 1152.03
355.20 1129.79
355.25 1081.30
355.30 1023.81
355.35 982.025
355.40 932.808
355.45 905.239
355.50 968.943
355.55 1113.10
355.60 1138.21
355.65 1118.52
355.70 1104.86
355.75 1086.03
355.80 1026.62
355.85 973.409
355.90 1001.59
355.95 1032.09
356.00 1055.60
356.05 1067.21
356.10 1062.96
356.15 1095.30
356.20 1157.97
356.25 1233.86
356.30 1283.21
356.35 1281.02
356.40 1189.50
356.45 988.873
356.50 735.741
356.55 572.554
356.60 582.611
356.65 687.272
356.70 845.676
356.75 982.044
356.80 998.743
356.85 916.617
356.90 736.450
356.95 571.702
357.00 533.109
357.05 603.505
357.10 718.722
357.15 799.915
357.20 843.012
357.25 886.856
357.30 941.860
357.35 939.274
357.40 939.077
357.45 930.193
357.50 947.194
357.55 973.536
357.60 1003.32
357.65 1040.04
357.70 1062.07
357.75 1010.69
357.80 894.558
357.85 833.609
357.90 814.489
357.95 814.648
358.00 779.545
358.05 647.777
358.10 472.108
358.15 443.532
358.20 493.471
358.25 591.940
358.30 727.701
358.35 796.553
358.40 798.734
358.45 733.616
358.50 598.170
358.55 507.683
358.60 532.605
358.65 557.256
358.70 588.308
358.75 652.868
358.80 723.928
358.85 779.754
358.90 783.697
358.95 788.466
359.00 829.581
359.05 908.903
359.10 1064.30
359.15 1174.69
359.20 1173.10
359.25 1074.16
359.30 1000.39
359.35 953.332
359.40 994.038
359.45 1040.45
359.50 1088.55
359.55 1163.01
359.60 1216.13
359.65 1257.11
359.70 1259.52
359.75 1209.38
359.80 1182.29
359.85 1154.73
359.90 1163.56
359.95 1199.90
360.00 1294.81
360.05 1340.29
360.10 1348.73
360.15 1214.26
360.20 1057.83
360.25 979.694
360.30 940.661
360.35 942.317
360.40 948.363
360.45 945.467
360.50 906.861
360.55 869.191
360.60 911.406
360.65 979.828
360.70 1032.25
360.75 1025.73
360.80 913.630
360.85 737.384
360.90 638.763
360.95 651.567
361.00 726.343
361.05 795.844
361.10 903.578
361.15 1017.57
361.20 1070.07
361.25 1030.64
361.30 981.803
361.35 910.464
361.40 923.694
361.45 1003.31
361.50 1070.70
361.55 1145.30
361.60 1168.14
361.65 1131.28
361.70 1076.87
361.75 916.238
361.80 709.779
361.85 538.613
361.90 492.197
361.95 582.600
362.00 737.895
362.05 869.465
362.10 893.252
362.15 933.297
362.20 1049.71
362.25 1140.67
362.30 1123.48
362.35 1089.32
362.40 1013.88
362.45 1025.19
362.50 1146.80
362.55 1193.48
362.60 1315.33
362.65 1362.19
362.70 1384.42
362.75 1348.85
362.80 1313.94
362.85 1307.21
362.90 1311.94
362.95 1272.13
363.00 1137.86
363.05 846.457
363.10 706.000
363.15 585.074
363.20 656.080
363.25 817.472
363.30 941.587
363.35 972.737
363.40 952.082
363.45 898.281
363.50 950.577
363.55 1007.47
363.60 1051.65
363.65 1058.52
363.70 1051.59
363.75 1071.36
363.80 1104.84
363.85 1175.84
363.90 1240.48
363.95 1266.81
364.00 1279.44
364.05 1270.20
364.10 1264.42
364.15 1218.72
364.20 1189.22
364.25 1121.33
364.30 1098.48
364.35 1072.06
364.40 1037.26
364.45 965.081
364.50 944.101
364.55 947.839
364.60 1019.23
364.65 1045.87
364.70 915.327
364.75 859.768
364.80 768.645
364.85 855.943
364.90 941.766
364.95 911.700
365.00 920.589
365.05 1023.40
365.10 1092.03
365.15 1105.97
365.20 1150.68
365.25 1276.07
365.30 1343.75
365.35 1297.40
365.40 1288.14
365.45 1280.05
365.50 1265.00
365.55 1240.82
365.60 1264.49
365.65 1328.13
365.70 1349.34
365.75 1329.55
365.80 1332.67
365.85 1393.09
365.90 1430.83
365.95 1418.78
366.00 1379.73
366.05 1367.32
366.10 1390.04
366.15 1396.13
366.20 1385.19
366.25 1323.39
366.30 1261.38
366.35 1205.34
366.40 1182.14
366.45 1214.37
366.50 1301.98
366.55 1343.21
366.60 1299.61
366.65 1271.98
366.70 1257.32
366.75 1282.08
366.80 1307.41
366.85 1249.44
366.90 1141.86
366.95 1079.89
367.00 1071.89
367.05 1140.16
367.10 1230.12
367.15 1366.60
367.20 1429.02
367.25 1432.63
367.30 1367.94
367.35 1289.11
367.40 1274.19
367.45 1285.49
367.50 1339.76
367.55 1379.03
367.60 1374.58
367.65 1250.72
367.70 1182.66
367.75 1067.66
367.80 1071.85
367.85 1126.85
367.90 1126.32
367.95 1068.32
368.00 995.617
368.05 1005.34
368.10 1058.06
368.15 1155.26
368.20 1184.28
368.25 1183.39
368.30 1205.36
368.35 1273.67
368.40 1289.64
368.45 1256.97
368.50 1181.54
368.55 1101.30
368.60 1080.63
368.65 1060.00
368.70 989.844
368.75 919.807
368.80 959.563
368.85 1019.82
368.90 1073.73
368.95 1168.46
369.00 1252.71
369.05 1346.08
369.10 1435.15
369.15 1490.00
369.20 1495.46
369.25 1430.54
369.30 1314.29
369.35 1216.72
369.40 1179.41
369.45 1197.99
369.50 1263.08
369.55 1286.85
369.60 1270.08
369.65 1264.39
369.70 1263.80
369.75 1287.05
369.80 1316.73
369.85 1359.64
369.90 1429.20
369.95 1494.16
370.00 1506.54
370.05 1462.77
370.10 1420.21
370.15 1381.81
370.20 1379.83
370.25 1366.36
370.30 1339.37
370.35 1225.97
370.40 1082.17
370.45 1006.92
370.50 963.060
370.55 871.999
370.60 863.894
370.65 941.692
370.70 992.216
370.75 992.033
370.80 979.046
370.85 970.365
370.90 932.431
370.95 921.123
371.00 1059.36
371.05 1190.85
371.10 1268.11
371.15 1297.30
371.20 1333.14
371.25 1383.41
371.30 1468.38
371.35 1510.61
371.40 1580.19
371.45 1593.13
371.50 1528.67
371.55 1449.59
371.60 1372.93
371.65 1389.98
371.70 1424.05
371.75 1424.16
371.80 1331.85
371.85 1170.43
371.90 970.637
371.95 818.653
372.00 651.417
372.05 648.264
372.10 695.679
372.15 710.118
372.20 713.383
372.25 785.171
372.30 889.915
372.35 1073.05
372.40 1149.73
372.45 1250.60
372.50 1301.26
372.55 1400.53
372.60 1411.01
372.65 1245.50
372.70 1065.05
372.75 924.995
372.80 975.346
372.85 1158.85
372.90 1317.96
372.95 1387.12
373.00 1323.65
373.05 1217.42
373.10 1145.96
373.15 1141.25
373.20 1116.89
373.25 1003.81
373.30 868.424
373.35 755.976
373.40 690.420
373.45 574.568
373.50 517.393
373.55 574.218
373.60 615.844
373.65 625.357
373.70 635.474
373.75 675.918
373.80 769.427
373.85 972.011
373.90 1111.91
373.95 1183.38
374.00 1225.83
374.05 1338.69
374.10 1349.74
374.15 1344.04
374.20 1299.83
374.25 1132.80
374.30 977.985
374.35 924.339
374.40 932.142
374.45 935.534
374.50 808.461
374.55 718.701
374.60 700.346
374.65 776.436
374.70 892.084
374.75 835.217
374.80 757.008
374.85 622.621
374.90 525.532
374.95 543.450
375.00 614.344
375.05 818.729
375.10 1027.77
375.15 1168.26
375.20 1240.07
375.25 1252.89
375.30 1253.34
375.35 1287.51
375.40 1364.09
375.45 1439.41
375.50 1526.42
375.55 1554.76
375.60 1525.96
375.65 1447.70
375.70 1234.07
375.75 973.077
375.80 789.326
375.85 742.246
375.90 817.037
375.95 987.653
376.00 1118.99
376.05 1173.19
376.10 1189.12
376.15 1184.84
376.20 1215.16
376.25 1194.64
376.30 1077.67
376.35 978.217
376.40 1002.19
376.45 1109.06
376.50 1211.63
376.55 1246.48
376.60 1163.44
376.65 1023.63
376.70 950.162
376.75 963.239
376.80 1128.87
376.85 1164.89
376.90 1238.57
376.95 1233.83
377.00 1101.81
377.05 1063.05
377.10 1084.00
377.15 1174.90
377.20 1307.22
377.25 1376.02
377.30 1416.82
377.35 1428.65
377.40 1406.98
377.45 1386.40
377.50 1369.81
377.55 1352.37
377.60 1358.62
377.65 1397.26
377.70 1426.01
377.75 1414.18
377.80 1374.63
377.85 1369.51
377.90 1391.36
377.95 1470.71
378.00 1554.73
378.05 1583.12
378.10 1558.91
378.15 1530.76
378.20 1504.85
378.25 1504.60
378.30 1524.58
378.35 1555.57
378.40 1625.42
378.45 1662.77
378.50 1572.99
378.55 1372.44
378.60 1177.69
378.65 1126.33
378.70 1147.91
378.75 1165.10
378.80 1162.42
378.85 1148.22
378.90 1099.47
378.95 1070.20
379.00 1070.45
379.05 1137.19
379.10 1213.36
379.15 1302.36
379.20 1295.79
379.25 1242.19
379.30 1186.18
379.35 1121.70
379.40 1056.33
379.45 1002.93
379.50 982.611
379.55 1008.16
379.60 1087.33
379.65 1103.33
379.70 1041.97
379.75 909.178
379.80 831.215
379.85 812.517
379.90 839.705
379.95 937.641
380.00 1085.29
380.05 1222.00
380.10 1258.38
380.15 1242.43
380.20 1270.53
380.25 1334.12
380.30 1399.19
380.35 1451.68
380.40 1453.06
380.45 1424.41
380.50 1402.73
380.55 1382.84
380.60 1295.88
380.65 1183.97
380.70 1105.63
380.75 1099.33
380.80 1214.16
380.85 1322.64
380.90 1374.65
380.95 1409.41
381.00 1456.93
381.05 1470.86
381.10 1454.25
381.15 1428.05
381.20 1369.23
381.25 1244.68
381.30 1115.38
381.35 1061.16
381.40 1035.84
381.45 1006.41
381.50 930.994
381.55 826.952
381.60 785.192
381.65 892.990
381.70 1034.65
381.75 1155.02
381.80 1217.47
381.85 1201.09
381.90 1105.92
381.95 928.992
382.00 737.926
382.05 621.493
382.10 664.349
382.15 777.459
382.20 962.140
382.25 1129.28
382.30 1123.46
382.35 1081.41
382.40 924.818
382.45 762.202
382.50 692.414
382.55 633.825
382.60 613.229
382.65 656.028
382.70 704.933
382.75 710.425
382.80 704.432
382.85 722.518
382.90 735.527
382.95 745.825
383.00 811.522
383.05 888.030
383.10 864.867
383.15 787.365
383.20 699.819
383.25 601.270
383.30 606.214
383.35 614.361
383.40 614.319
383.45 646.616
383.50 718.152
383.55 809.453
383.60 842.485
383.65 857.300
383.70 823.946
383.75 708.997
383.80 635.098
383.85 591.224
383.90 636.259
383.95 674.730
384.00 680.807
384.05 635.948
384.10 683.806
384.15 861.527
384.20 997.843
384.25 1134.66
384.30 1149.30
384.35 1142.70
384.40 1171.09
384.45 1199.07
384.50 1191.38
384.55 1166.89
384.60 1142.95
384.65 1138.90
384.70 1195.33
384.75 1262.71
384.80 1312.96
384.85 1286.35
384.90 1106.10
384.95 1016.05
385.00 941.920
385.05 929.063
385.10 1044.15
385.15 1216.77
385.20 1295.84
385.25 1278.46
385.30 1208.27
385.35 1133.92
385.40 1093.44
385.45 1074.83
385.50 1068.90
385.55 1014.13
385.60 933.833
385.65 932.148
385.70 1023.33
385.75 1057.44
385.80 994.299
385.85 869.266
385.90 720.722
385.95 625.696
386.00 600.844
386.05 636.344
386.10 784.674
386.15 962.319
386.20 1116.65
386.25 1282.77
386.30 1341.83
386.35 1325.84
386.40 1289.39
386.45 1269.70
386.50 1198.26
386.55 1132.76
386.60 1153.49
386.65 1172.99
386.70 1179.46
386.75 1152.50
386.80 1137.45
386.85 1134.54
386.90 1113.11
386.95 1042.46
387.00 944.293
387.05 885.028
387.10 798.978
387.15 762.171
387.20 766.159
387.25 786.157
387.30 866.364
387.35 1012.20
387.40 1146.40
387.45 1264.74
387.50 1348.66
387.55 1362.52
387.60 1326.54
387.65 1309.49
387.70 1205.03
387.75 1028.52
387.80 846.298
387.85 830.664
387.90 882.544
387.95 1041.85
388.00 1120.07
388.05 1124.34
388.10 1074.26
388.15 974.383
388.20 861.071
388.25 829.385
388.30 897.017
388.35 1092.44
388.40 1270.29
388.45 1287.02
388.50 1192.10
388.55 1015.03
388.60 835.247
388.65 779.014
388.70 856.368
388.75 966.100
388.80 941.086
388.85 898.406
388.90 870.691
388.95 924.690
389.00 1045.46
389.05 1159.56
389.10 1233.92
389.15 1330.35
389.20 1367.22
389.25 1350.01
389.30 1325.02
389.35 1311.18
389.40 1317.35
389.45 1285.42
389.50 1244.76
389.55 1183.22
389.60 1240.05
389.65 1402.39
389.70 1474.83
389.75 1450.63
389.80 1370.63
389.85 1339.70
389.90 1294.00
389.95 1232.82
390.00 1227.40
390.05 1307.25
390.10 1398.49
390.15 1437.17
390.20 1338.71
390.25 1181.22
390.30 1131.01
390.35 1157.64
390.40 1217.16
390.45 1200.78
390.50 1141.18
390.55 1013.61
390.60 1000.73
390.65 1145.05
390.70 1215.58
390.75 1341.95
390.80 1411.99
390.85 1450.15
390.90 1466.54
390.95 1433.84
391.00 1379.88
391.05 1374.74
391.10 1402.92
391.15 1477.17
391.20 1550.26
391.25 1540.18
391.30 1528.63
391.35 1453.75
391.40 1417.17
391.45 1453.72
391.50 1472.36
391.55 1450.55
391.60 1382.77
391.65 1358.60
391.70 1378.26
391.75 1402.45
391.80 1383.75
391.85 1311.17
391.90 1289.03
391.95 1255.15
392.00 1160.35
392.05 1034.69
392.10 1009.04
392.15 1052.84
392.20 1113.81
392.25 1119.91
392.30 1121.74
392.35 1170.99
392.40 1264.76
392.45 1266.72
392.50 1218.60
392.55 1151.57
392.60 1070.76
392.65 1033.38
392.70 982.428
392.75 921.538
392.80 776.372
392.85 698.697
392.90 669.170
392.95 638.458
393.00 587.566
393.05 528.218
393.10 496.003
393.15 468.554
393.20 423.356
393.25 357.663
393.30 304.597
393.35 265.050
393.40 256.560
393.45 293.787
393.50 341.417
393.55 388.542
393.60 444.086
393.65 531.123
393.70 601.057
393.75 632.600
393.80 688.735
393.85 790.646
393.90 878.060
393.95 941.162
394.00 996.636
394.05 1012.70
394.10 1012.34
394.15 1016.17
394.20 1053.57
394.25 1071.16
394.30 1022.14
394.35 946.431
394.40 891.778
394.45 913.988
394.50 1052.68
394.55 1181.80
394.60 1330.67
394.65 1399.51
394.70 1353.82
394.75 1285.47
394.80 1237.63
394.85 1231.33
394.90 1298.28
394.95 1390.59
395.00 1450.83
395.05 1508.16
395.10 1524.20
395.15 1484.22
395.20 1401.48
395.25 1253.77
395.30 1246.61
395.35 1336.93
395.40 1464.83
395.45 1540.61
395.50 1506.17
395.55 1425.87
395.60 1325.52
395.65 1255.45
395.70 1293.86
395.75 1346.46
395.80 1394.07
395.85 1451.76
395.90 1509.23
395.95 1507.63
396.00 1443.78
396.05 1235.85
396.10 995.373
396.15 873.589
396.20 824.845
396.25 851.769
396.30 895.624
396.35 913.402
396.40 906.228
396.45 861.031
396.50 801.278
396.55 717.500
396.60 634.466
396.65 543.754
396.70 449.141
396.75 379.357
396.80 338.970
396.85 299.261
396.90 294.016
396.95 345.813
397.00 424.566
397.05 489.234
397.10 606.327
397.15 681.138
397.20 743.018
397.25 800.987
397.30 858.732
397.35 907.876
397.40 944.943
397.45 1008.06
397.50 1129.59
397.55 1193.53
397.60 1208.59
397.65 1229.72
397.70 1276.03
397.75 1350.25
397.80 1397.67
397.85 1449.39
397.90 1518.14
397.95 1579.23
398.00 1615.59
398.05 1637.96
398.10 1614.97
398.15 1547.23
398.20 1521.68
398.25 1513.10
398.30 1504.67
398.35 1472.42
398.40 1466.87
398.45 1510.97
398.50 1565.13
398.55 1578.37
398.60 1544.83
398.65 1478.48
398.70 1480.25
398.75 1648.46
398.80 1736.31
398.85 1753.95
398.90 1696.01
398.95 1633.56
399.00 1610.64
399.05 1632.15
399.10 1691.82
399.15 1728.81
399.20 1741.03
399.25 1762.66
399.30 1775.35
399.35 1736.69
399.40 1699.58
399.45 1674.49
399.50 1660.61
399.55 1658.43
399.60 1645.54
399.65 1609.80
399.70 1547.39
399.75 1480.20
399.80 1531.23
399.85 1677.94
399.90 1733.60
399.95 1843.20
400.00 1850.01
400.05 1786.21
400.10 1746.80
400.15 1760.53
400.20 1798.48
400.25 1875.14
400.30 1916.51
400.35 1891.75
400.40 1803.91
400.45 1618.87
400.50 1385.63
400.55 1337.50
400.60 1403.16
400.65 1491.71
400.70 1611.24
400.75 1721.43
400.80 1823.80
400.85 1821.08
400.90 1785.73
400.95 1761.93
401.00 1771.12
401.05 1788.65
401.10 1813.59
401.15 1816.34
401.20 1818.29
401.25 1840.21
401.30 1844.80
401.35 1805.03
401.40 1771.34
401.45 1790.38
401.50 1843.11
401.55 1875.48
401.60 1840.12
401.65 1778.77
401.70 1678.39
401.75 1636.20
401.80 1711.85
401.85 1817.81
401.90 1900.93
401.95 1899.10
402.00 1833.28
402.05 1818.10
402.10 1797.10
402.15 1801.58
402.20 1814.54
402.25 1848.78
402.30 1857.50
402.35 1834.51
402.40 1769.51
402.45 1710.97
402.50 1714.39
402.55 1773.25
402.60 1844.86
402.65 1889.35
402.70 1907.20
402.75 1933.62
402.80 1949.40
402.85 1960.95
402.90 1927.74
402.95 1766.75
403.00 1579.20
403.05 1453.65
403.10 1469.43
403.15 1543.84
403.20 1542.36
403.25 1490.62
403.30 1486.19
403.35 1519.81
403.40 1572.23
403.45 1603.98
403.50 1649.75
403.55 1714.56
403.60 1821.94
403.65 1924.86
403.70 1988.04
403.75 2021.26
403.80 2028.17
403.85 2009.58
403.90 1982.74
403.95 1937.20
404.00 1832.89
404.05 1768.55
404.10 1770.59
404.15 1829.57
404.20 1976.60
404.25 2045.53
404.30 1990.17
404.35 1845.69
404.40 1620.89
404.45 1373.35
404.50 1168.95
404.55 1051.19
404.60 1093.36
404.65 1420.78
404.70 1674.80
404.75 1820.54
404.80 1894.76
404.85 1865.45
404.90 1854.25
404.95 1889.21
405.00 1966.38
405.05 2009.16
405.10 1986.49
405.15 1915.59
405.20 1804.33
405.25 1758.59
405.30 1780.06
405.35 1787.76
405.40 1741.94
405.45 1678.46
405.50 1663.48
405.55 1699.36
405.60 1754.12
405.65 1722.97
405.70 1614.71
405.75 1542.80
405.80 1524.85
405.85 1572.82
405.90 1655.57
405.95 1739.36
406.00 1857.22
406.05 1914.32
406.10 1902.64
406.15 1849.89
406.20 1706.44
406.25 1474.43
406.30 1256.95
406.35 1175.52
406.40 1277.64
406.45 1532.51
406.50 1697.94
406.55 1745.54
406.60 1684.77
406.65 1595.49
406.70 1557.15
406.75 1604.30
406.80 1752.74
406.85 1884.79
406.90 1957.89
406.95 1960.80
407.00 1863.08
407.05 1623.68
407.10 1375.54
407.15 1286.19
407.20 1357.65
407.25 1636.53
407.30 1820.83
407.35 1869.62
407.40 1844.80
407.45 1785.93
407.50 1741.93
407.55 1697.53
407.60 1577.93
407.65 1442.78
407.70 1374.47
407.75 1383.99
407.80 1461.66
407.85 1680.75 
407.9 1792.21 
407.95 1884.85 
408 1941.11 
408.05 1951.39 
408.1 1902.45 
408.15 1845.49 
408.2 1786.42 
408.25 1701.53 
408.3 1647.96 
408.35 1635.1 
408.4 1640.16 
408.45 1689.69 
408.5 1763.48 
408.55 1830.41 
408.6 1898.65 
408.65 1965.66 
408.7 2012.71 
408.75 2016.92 
408.8 2003.02 
408.85 1974.37 
408.9 1933.35 
408.95 1911.58 
409 1902.77 
409.05 1852.13 
409.1 1778.57 
409.15 1779.42 
409.2 1851.93 
409.25 1920.41 
409.3 1911.6 
409.35 1830.22 
409.4 1754.81 
409.45 1672.2 
409.5 1631.74 
409.55 1632.53 
409.6 1643.19 
409.65 1646.83 
409.7 1644.87 
409.75 1637.58 
409.8 1633.39 
409.85 1609.67 
409.9 1498.63 
409.95 1324.27 
410 1190.47 
410.05 1104.17 
410.1 1141.05 
410.15 1256.37 
410.2 1357.44 
410.25 1460.54 
410.3 1540.57 
410.35 1633.57 
410.4 1679.45 
410.45 1724.75 
410.5 1762.87 
410.55 1786.37 
410.6 1792.89 
410.65 1787.49 
410.7 1784.44 
410.75 1772.51 
410.8 1758.66 
410.85 1742.36 
410.9 1738.81 
410.95 1746.31 
411 1754.35 
411.05 1764.97 
411.1 1782.74 
411.15 1832.63 
411.2 1880.88 
411.25 1922.01 
411.3 1940.11 
411.35 1920.05 
411.4 1934.09 
411.45 1960.38 
411.5 1977.57 
411.55 2004.98 
411.6 2009.53 
411.65 1964.34 
411.7 1860.24 
411.75 1704.98 
411.8 1703.3 
411.85 1745.05 
411.9 1814.28 
411.95 1887.87 
412 1892.8 
412.05 1872.66 
412.1 1852.05 
412.15 1823.65 
412.2 1811.46 
412.25 1839.63 
412.3 1885.44 
412.35 1915.19 
412.4 1925.53 
412.45 1887.17 
412.5 1836.19 
412.55 1801.54 
412.6 1773.15 
412.65 1746.7 
412.7 1742.85 
412.75 1771.06 
412.8 1808.44 
412.85 1835.6 
412.9 1854.78 
412.95 1854.37 
413 1795.78 
413.05 1670.67 
413.1 1558.38 
413.15 1547.85 
413.2 1586.67 
413.25 1608.45 
413.3 1597.95 
413.35 1659.53 
413.4 1785.81 
413.45 1887.08 
413.5 1943.01 
413.55 1936.09 
413.6 1906.83 
413.65 1904.94 
413.7 1936.6 
413.75 1984.92 
413.8 2015.47 
413.85 2010.45 
413.9 2002.89 
413.95 2001.01 
414 1989.66 
414.05 1919.15 
414.1 1807.07 
414.15 1640.29 
414.2 1489.99 
414.25 1428.75 
414.3 1462.55 
414.35 1618.24 
414.4 1759.6 
414.45 1845.6 
414.5 1883.39 
414.55 1895.17 
414.6 1890.21 
414.65 1900 
414.7 1914.56 
414.75 1879.58 
414.8 1785.99 
414.85 1754.02 
414.9 1769.55 
414.95 1816.05 
415 1852.18 
415.05 1842.92 
415.1 1835.04 
415.15 1840.13 
415.2 1811.85 
415.25 1708.57 
415.3 1616.73 
415.35 1638.13 
415.4 1717.43 
415.45 1736.23 
415.5 1717.9 
415.55 1684.07 
415.6 1684.12 
415.65 1735.75 
415.7 1769.27 
415.75 1796.12 
415.8 1839.7 
415.85 1889.55 
415.9 1890.24 
415.95 1876.12 
416 1885.09 
416.05 1924.62 
416.1 1965.71 
416.15 1994.51 
416.2 2009.64 
416.25 1991.21 
416.3 1968.44 
416.35 1957.93 
416.4 1955.61 
416.45 1949.62 
416.5 1921.63 
416.55 1861.44 
416.6 1759.44 
416.65 1705.14 
416.7 1723.72 
416.75 1808.59 
416.8 1898.74 
416.85 1918.73 
416.9 1910.9 
416.95 1884.83 
417 1798.72 
417.05 1660.45 
417.1 1582.08 
417.15 1541.81 
417.2 1530.85 
417.25 1584.84 
417.3 1651.88 
417.35 1686.96 
417.4 1711.7 
417.45 1742 
417.5 1758.08 
417.55 1761.43 
417.6 1721.12 
417.65 1680.18 
417.7 1689.34 
417.75 1720.73 
417.8 1776.61 
417.85 1853.73 
417.9 1885.5 
417.95 1873.34 
418 1803.26 
418.05 1684.61 
418.1 1651.27 
418.15 1665.85 
418.2 1686.78 
418.25 1719.31 
418.3 1756.19 
418.35 1812.97 
418.4 1864.45 
418.45 1861.46 
418.5 1801.1 
418.55 1672.47 
418.6 1554.55 
418.65 1514.56 
418.7 1536.74 
418.75 1600.37 
418.8 1723.33 
418.85 1845.75 
418.9 1866.99 
418.95 1848.8 
419 1790.7 
419.05 1750.5 
419.1 1790.08 
419.15 1884.67 
419.2 1991.76 
419.25 2042.92 
419.3 2001.28 
419.35 1899.97 
419.4 1784.57 
419.45 1689.7 
419.5 1666.58 
419.55 1699.38 
419.6 1716.85 
419.65 1653.93 
419.7 1549.78 
419.75 1507.59 
419.8 1519.94 
419.85 1595.27 
