# ATLAS3, shifted to air wavelengths.
# It is ATLAS2 for wavelengths larger than 407.8 and smaller then 419.90
# It is modtran for wavelengths larger than 419.90
# Source: Bernhard Mayer, IFU, and modtran version 3.5
# two columns, wavelength [nm] and irradiance [mW/ (m2 nm)]
#
200.00 7.12904
200.05 7.02787
200.10 7.22708
200.15 7.61477
200.20 7.63340
200.25 7.64274
200.30 7.70706
200.35 7.54931
200.40 7.30337
200.45 7.40346
200.50 7.69798
200.55 8.06502
200.60 7.91082
200.65 7.72579
200.70 7.49186
200.75 7.53993
200.80 7.66413
200.85 7.70170
200.90 7.85688
200.95 8.12606
201.00 8.13700
201.05 7.65754
201.10 7.27927
201.15 7.50969
201.20 8.25917
201.25 8.69726
201.30 8.76831
201.35 8.49707
201.40 8.18975
201.45 8.05515
201.50 8.02096
201.55 7.98372
201.60 8.11172
201.65 8.38751
201.70 8.77463
201.75 9.03862
201.80 9.20068
201.85 8.92542
201.90 8.67895
201.95 8.73055
202.00 8.74592
202.05 8.53998
202.10 8.21126
202.15 7.86119
202.20 7.81148
202.25 8.28365
202.30 8.89443
202.35 9.09852
202.40 8.91638
202.45 8.15664
202.50 7.14345
202.55 6.53365
202.60 6.26885
202.65 7.13754
202.70 8.42686
202.75 9.05435
202.80 9.27542
202.85 9.22798
202.90 9.00461
202.95 8.98137
203.00 9.26514
203.05 9.79783
203.10 10.2583
203.15 10.2399
203.20 9.94057
203.25 9.40535
203.30 8.63998
203.35 8.15877
203.40 8.15730
203.45 8.45668
203.50 9.17963
203.55 9.89123
203.60 10.2025
203.65 10.2446
203.70 10.1993
203.75 10.2192
203.80 10.0477
203.85 9.49379
203.90 8.95581
203.95 8.81615
204.00 9.08186
204.05 9.70992
204.10 10.2852
204.15 10.8278
204.20 11.2145
204.25 11.2968
204.30 11.0012
204.35 10.3032
204.40 9.96895
204.45 10.0619
204.50 10.4444
204.55 11.1675
204.60 11.4586
204.65 11.1189
204.70 10.5005
204.75 10.0663
204.80 10.3604
204.85 10.6601
204.90 10.6871
204.95 10.6591
205.00 10.9634
205.05 11.1006
205.10 11.0408
205.15 11.0673
205.20 11.1945
205.25 11.3560
205.30 11.5157
205.35 11.5250
205.40 11.3754
205.45 11.0352
205.50 10.5914
205.55 9.92017
205.60 10.2834
205.65 11.1509
205.70 11.4125
205.75 11.0109
205.80 10.0521
205.85 9.95352
205.90 10.6539
205.95 11.3585
206.00 11.5932
206.05 11.6067
206.10 11.3479
206.15 10.6379
206.20 10.0249
206.25 10.3877
206.30 11.1953
206.35 11.4627
206.40 11.4736
206.45 11.7217
206.50 11.7550
206.55 11.3652
206.60 11.2162
206.65 11.7026
206.70 12.2405
206.75 12.3479
206.80 12.2611
206.85 11.9760
206.90 11.8159
206.95 11.8218
207.00 11.9959
207.05 12.4622
207.10 12.7951
207.15 12.6275
207.20 12.4464
207.25 12.4600
207.30 12.9409
207.35 13.3810
207.40 13.4104
207.45 13.4255
207.50 13.6418
207.55 13.9580
207.60 14.1832
207.65 14.4134
207.70 14.3308
207.75 14.0364
207.80 13.6274
207.85 13.4692
207.90 13.7004
207.95 14.2966
208.00 14.5259
208.05 14.0996
208.10 13.7046
208.15 13.3909
208.20 13.1084
208.25 13.1935
208.30 13.7386
208.35 14.1019
208.40 13.6072
208.45 13.2040
208.50 13.7367
208.55 15.7431
208.60 17.1165
208.65 17.3560
208.70 17.1104
208.75 17.4527
208.80 19.5558
208.85 20.0436
208.90 18.3427
208.95 16.3598
209.00 16.3879
209.05 17.0347
209.10 18.0300
209.15 18.6407
209.20 19.9418
209.25 23.3540
209.30 24.9181
209.35 23.3002
209.40 18.8180
209.45 18.5593
209.50 20.9772
209.55 23.4632
209.60 24.7738
209.65 23.5757
209.70 23.3374
209.75 25.1546
209.80 27.0813
209.85 24.9955
209.90 22.9571
209.95 20.9038
210.00 19.8329
210.05 22.4486
210.10 27.9970
210.15 32.9549
210.20 34.5236
210.25 28.8476
210.30 22.2180
210.35 18.1671
210.40 21.9364
210.45 31.2293
210.50 37.5055
210.55 39.9633
210.60 37.8454
210.65 34.9153
210.70 33.8173
210.75 32.5593
210.80 28.1161
210.85 23.1379
210.90 20.0515
210.95 20.2582
211.00 21.0723
211.05 25.1084
211.10 32.7300
211.15 36.6311
211.20 40.6193
211.25 38.6951
211.30 31.6149
211.35 29.0894
211.40 28.5990
211.45 26.5377
211.50 25.8164
211.55 31.9485
211.60 38.7044
211.65 43.6388
211.70 46.0906
211.75 43.0451
211.80 38.3603
211.85 35.3215
211.90 39.3802
211.95 47.6816
212.00 52.0384
212.05 51.4094
212.10 42.7385
212.15 34.1430
212.20 30.9940
212.25 28.7467
212.30 24.3836
212.35 17.2115
212.40 13.9410
212.45 13.5321
212.50 17.5791
212.55 26.4829
212.60 32.7079
212.65 36.1465
212.70 37.4713
212.75 37.3037
212.80 37.3945
212.85 37.9255
212.90 37.8465
212.95 33.2016
213.00 27.2146
213.05 25.0669
213.10 27.0977
213.15 30.3814
213.20 30.1654
213.25 29.4622
213.30 30.7445
213.35 32.8774
213.40 30.5062
213.45 26.7285
213.50 25.4526
213.55 27.8133
213.60 32.4625
213.65 37.4226
213.70 43.1506
213.75 42.2283
213.80 33.2766
213.85 25.5757
213.90 22.7134
213.95 25.3020
214.00 35.1157
214.05 47.5134
214.10 52.9469
214.15 52.7041
214.20 49.6062
214.25 47.8933
214.30 49.3754
214.35 50.2385
214.40 48.7299
214.45 44.7898
214.50 40.0206
214.55 35.9583
214.60 34.5961
214.65 34.0242
214.70 34.6245
214.75 35.8110
214.80 38.0618
214.85 42.2863
214.90 45.2738
214.95 47.9886
215.00 45.8350
215.05 34.2761
215.10 30.8179
215.15 33.1652
215.20 35.8540
215.25 39.8311
215.30 46.4046
215.35 50.3982
215.40 49.3230
215.45 43.7332
215.50 40.0361
215.55 37.5627
215.60 35.4434
215.65 32.2267
215.70 25.5998
215.75 22.9467
215.80 21.8969
215.85 22.0810
215.90 25.1300
215.95 30.2448
216.00 36.6257
216.05 43.0312
216.10 45.1462
216.15 41.5435
216.20 39.4115
216.25 40.0923
216.30 40.9371
216.35 38.4552
216.40 37.2442
216.45 37.7051
216.50 35.6586
216.55 28.3748
216.60 22.0882
216.65 18.9680
216.70 20.6040
216.75 27.8613
216.80 32.8796
216.85 32.2614
216.90 29.6783
216.95 28.6363
217.00 33.6437
217.05 37.2766
217.10 37.3362
217.15 37.6185
217.20 39.9022
217.25 41.6585
217.30 40.4679
217.35 34.0703
217.40 28.5007
217.45 25.6387
217.50 25.9729
217.55 29.6462
217.60 35.4039
217.65 36.0374
217.70 33.0077
217.75 28.5489
217.80 26.7930
217.85 32.8193
217.90 40.7730
217.95 50.0197
218.00 55.0534
218.05 56.0324
218.10 56.7798
218.15 57.7071
218.20 59.6533
218.25 60.8847
218.30 57.2268
218.35 49.1252
218.40 41.6917
218.45 43.1627
218.50 50.1185
218.55 54.3327
218.60 49.6541
218.65 33.5131
218.70 25.3890
218.75 29.6313
218.80 39.8926
218.85 43.2651
218.90 38.4514
218.95 38.2131
219.00 43.9749
219.05 47.3069
219.10 43.7536
219.15 39.3057
219.20 39.3468
219.25 51.4464
219.30 64.4252
219.35 67.0128
219.40 63.1473
219.45 53.3104
219.50 42.9843
219.55 36.2833
219.60 33.8958
219.65 37.2967
219.70 46.2128
219.75 54.5373
219.80 59.2625
219.85 61.8012
219.90 59.5746
219.95 54.2205
220.00 46.2055
220.05 35.3766
220.10 32.7017
220.15 41.3831
220.20 50.6799
220.25 59.5055
220.30 67.2208
220.35 69.7504
220.40 65.8436
220.45 61.0506
220.50 59.3188
220.55 60.0286
220.60 55.1444
220.65 50.0567
220.70 45.1186
220.75 40.7761
220.80 35.2732
220.85 34.1708
220.90 38.0778
220.95 38.4400
221.00 30.2129
221.05 24.6408
221.10 21.2431
221.15 22.6635
221.20 31.0417
221.25 40.9127
221.30 49.0548
221.35 50.3179
221.40 45.2180
221.45 45.8720
221.50 48.5080
221.55 45.7349
221.60 35.2838
221.65 26.1356
221.70 23.8717
221.75 25.5605
221.80 31.2680
221.85 38.3707
221.90 46.1982
221.95 52.9604
222.00 54.0532
222.05 54.5145
222.10 57.5725
222.15 59.5246
222.20 56.6335
222.25 49.8930
222.30 45.4983
222.35 48.7635
222.40 53.8139
222.45 52.2650
222.50 50.3332
222.55 50.4010
222.60 49.3391
222.65 45.3404
222.70 43.2650
222.75 43.5635
222.80 48.7107
222.85 56.2057
222.90 57.1347
222.95 54.7692
223.00 50.5634
223.05 45.9353
223.10 43.6872
223.15 45.7780
223.20 56.0002
223.25 73.0482
223.30 83.7696
223.35 85.2795
223.40 81.6694
223.45 76.3028
223.50 78.0911
223.55 80.9370
223.60 79.7552
223.65 73.5893
223.70 67.3582
223.75 63.2267
223.80 57.8659
223.85 55.0711
223.90 64.7389
223.95 71.9077
224.00 72.3736
224.05 66.2336
224.10 55.9976
224.15 53.4988
224.20 53.5403
224.25 53.7293
224.30 52.1408
224.35 49.3978
224.40 46.7575
224.45 48.3799
224.50 57.4754
224.55 64.6752
224.60 66.0370
224.65 66.6890
224.70 70.8655
224.75 75.5868
224.80 75.1002
224.85 66.4848
224.90 54.0487
224.95 53.7364
225.00 55.9870
225.05 54.9092
225.10 51.6327
225.15 53.3828
225.20 60.8499
225.25 63.7198
225.30 55.8802
225.35 45.7675
225.40 48.6011
225.45 55.7171
225.50 56.4812
225.55 50.3735
225.60 46.0747
225.65 47.5526
225.70 51.6738
225.75 54.2445
225.80 53.5407
225.85 55.8331
225.90 57.6850
225.95 49.7362
226.00 39.4726
226.05 38.5484
226.10 43.0014
226.15 48.9767
226.20 52.1892
226.25 50.5957
226.30 47.2061
226.35 42.6767
226.40 39.2223
226.45 35.6571
226.50 34.0650
226.55 33.1620
226.60 34.5750
226.65 35.5378
226.70 34.7214
226.75 33.6106
226.80 33.2243
226.85 32.6663
226.90 31.5526
226.95 31.2466
227.00 31.4811
227.05 31.8018
227.10 33.1291
227.15 34.1613
227.20 35.6005
227.25 37.5183
227.30 38.3294
227.35 36.8038
227.40 35.4374
227.45 38.2234
227.50 39.9296
227.55 37.6649
227.60 37.2414
227.65 40.6921
227.70 44.8599
227.75 46.3957
227.80 46.9111
227.85 47.9211
227.90 48.6476
227.95 47.4130
228.00 46.4781
228.05 51.5585
228.10 59.8036
228.15 63.9871
228.20 66.4638
228.25 65.2737
228.30 57.2075
228.35 51.0752
228.40 51.7831
228.45 57.4714
228.50 66.9541
228.55 67.7368
228.60 60.3256
228.65 48.7735
228.70 39.5727
228.75 40.1479
228.80 47.8434
228.85 54.2402
228.90 54.1671
228.95 47.9971
229.00 43.6644
229.05 42.8041
229.10 44.9252
229.15 48.1625
229.20 49.7524
229.25 50.9555
229.30 52.9798
229.35 54.1241
229.40 53.1027
229.45 52.9562
229.50 56.9223
229.55 63.1264
229.60 62.8777
229.65 55.1840
229.70 42.7722
229.75 33.2992
229.80 32.0227
229.85 34.0228
229.90 38.2261
229.95 41.1153
230.00 40.9419
230.05 39.9460
230.10 42.6481
230.15 49.4391
230.20 52.6920
230.25 50.5902
230.30 45.3276
230.35 44.4327
230.40 51.2246
230.45 58.5387
230.50 66.1409
230.55 76.1881
230.60 80.8359
230.65 78.6824
230.70 75.1185
230.75 69.0672
230.80 62.4271
230.85 56.0603
230.90 54.8496
230.95 49.2644
231.00 43.8397
231.05 39.6102
231.10 35.6264
231.15 34.6591
231.20 35.2367
231.25 35.7023
231.30 34.7963
231.35 37.0423
231.40 45.1341
231.45 56.6317
231.50 67.7827
231.55 68.9421
231.60 62.8391
231.65 56.5743
231.70 55.3116
231.75 55.9681
231.80 59.9136
231.85 60.4039
231.90 53.3449
231.95 44.8157
232.00 37.2492
232.05 37.0778
232.10 40.1616
232.15 42.5825
232.20 51.6386
232.25 67.4885
232.30 81.4895
232.35 87.0111
232.40 83.8960
232.45 70.9108
232.50 54.1475
232.55 42.4723
232.60 37.6672
232.65 38.0542
232.70 40.1698
232.75 42.9545
232.80 49.1656
232.85 56.6139
232.90 61.6113
232.95 61.0855
233.00 57.5231
233.05 52.8024
233.10 45.2510
233.15 39.1540
233.20 37.3341
233.25 35.0700
233.30 35.0191
233.35 41.0498
233.40 46.6861
233.45 50.2229
233.50 55.8996
233.55 62.2947
233.60 63.2831
233.65 55.8453
233.70 42.8847
233.75 32.1846
233.80 28.0230
233.85 28.2032
233.90 31.8394
233.95 37.4515
234.00 41.9204
234.05 45.0444
234.10 48.3893
234.15 52.6026
234.20 51.7931
234.25 46.1095
234.30 36.8904
234.35 26.8343
234.40 24.3156
234.45 26.8292
234.50 29.9498
234.55 31.1962
234.60 33.3733
234.65 36.5421
234.70 37.5574
234.75 33.7268
234.80 29.4827
234.85 30.1604
234.90 36.1511
234.95 47.5336
235.00 53.6181
235.05 54.5524
235.10 54.5186
235.15 57.0416
235.20 62.3964
235.25 66.2705
235.30 67.2186
235.35 63.9194
235.40 55.3601
235.45 48.3071
235.50 45.6973
235.55 52.3802
235.60 63.9011
235.65 67.9053
235.70 67.4852
235.75 66.7193
235.80 63.1855
235.85 51.9771
235.90 40.4341
235.95 33.9575
236.00 30.8337
236.05 35.3235
236.10 42.6471
236.15 45.7720
236.20 49.6746
236.25 58.1208
236.30 63.9953
236.35 60.1135
236.40 49.8243
236.45 41.2793
236.50 39.3793
236.55 42.7277
236.60 44.8344
236.65 42.1365
236.70 40.8388
236.75 42.8569
236.80 44.6649
236.85 47.2604
236.90 51.9106
236.95 56.5616
237.00 57.7055
237.05 58.8346
237.10 64.4608
237.15 70.1631
237.20 70.9399
237.25 62.3730
237.30 46.5157
237.35 36.0445
237.40 36.1156
237.45 39.4211
237.50 42.7333
237.55 48.2460
237.60 54.3297
237.65 61.9417
237.70 67.9976
237.75 65.2952
237.80 58.3065
237.85 48.5660
237.90 41.5996
237.95 39.8450
238.00 39.9971
238.05 37.6226
238.10 31.7758
238.15 25.8848
238.20 23.3978
238.25 22.8950
238.30 24.7737
238.35 29.0095
238.40 34.6520
238.45 39.4146
238.50 45.4585
238.55 52.7641
238.60 56.2858
238.65 56.4302
238.70 54.2671
238.75 46.3046
238.80 35.7955
238.85 30.0961
238.90 31.0133
238.95 41.3976
239.00 55.0104
239.05 62.8107
239.10 63.8593
239.15 59.4497
239.20 57.5412
239.25 58.5784
239.30 58.1673
239.35 53.8756
239.40 46.3212
239.45 38.6327
239.50 30.8475
239.55 25.0103
239.60 27.0281
239.65 33.9224
239.70 40.3664
239.75 46.2255
239.80 46.9390
239.85 41.1999
239.90 35.4054
239.95 33.7710
240.00 40.5061
240.05 49.8415
240.10 53.2968
240.15 52.4750
240.20 50.0157
240.25 49.3744
240.30 49.7456
240.35 48.1604
240.40 39.1909
240.45 28.7658
240.50 27.3880
240.55 31.8063
240.60 34.1643
240.65 33.1009
240.70 34.2244
240.75 39.4938
240.80 46.9100
240.85 50.2258
240.90 49.5714
240.95 47.5425
241.00 40.1417
241.05 30.9286
241.10 28.8215
241.15 33.8307
241.20 38.7699
241.25 41.7044
241.30 39.7476
241.35 39.0421
241.40 43.5444
241.45 50.2526
241.50 54.9089
241.55 56.5813
241.60 58.6779
241.65 61.9422
241.70 62.4316
241.75 61.8198
241.80 64.9736
241.85 69.4115
241.90 69.5753
241.95 69.8338
242.00 72.6506
242.05 75.0296
242.10 78.0202
242.15 81.9973
242.20 84.8065
242.25 81.1218
242.30 70.5103
242.35 63.7206
242.40 62.1646
242.45 62.0307
242.50 64.4081
242.55 69.9062
242.60 76.8771
242.65 84.6915
242.70 88.4127
242.75 81.5588
242.80 73.7548
242.85 68.6430
242.90 65.8471
242.95 70.3127
243.00 75.7552
243.05 78.0474
243.10 78.5774
243.15 73.6888
243.20 66.1434
243.25 61.7033
243.30 61.9378
243.35 66.3708
243.40 68.5885
243.45 61.8633
243.50 53.5620
243.55 54.5832
243.60 58.7200
243.65 61.2763
243.70 66.1783
243.75 72.9577
243.80 71.9662
243.85 66.4376
243.90 61.0466
243.95 56.6309
244.00 60.7817
244.05 68.0169
244.10 73.6119
244.15 77.2912
244.20 78.7883
244.25 77.2022
244.30 71.8640
244.35 65.1744
244.40 62.5709
244.45 63.9679
244.50 65.2893
244.55 64.6954
244.60 62.2408
244.65 58.6147
244.70 54.9240
244.75 52.2001
244.80 49.8189
244.85 51.6946
244.90 55.2185
244.95 54.9559
245.00 52.0353
245.05 49.5719
245.10 48.1513
245.15 46.7970
245.20 45.8092
245.25 46.8231
245.30 47.1329
245.35 46.5096
245.40 47.1397
245.45 50.3284
245.50 53.0545
245.55 52.1718
245.60 49.5068
245.65 48.7668
245.70 51.0476
245.75 54.5032
245.80 56.7141
245.85 54.0792
245.90 50.9133
245.95 50.7148
246.00 50.8153
246.05 48.8405
246.10 46.2315
246.15 44.2297
246.20 41.3621
246.25 39.5836
246.30 41.8878
246.35 46.3458
246.40 49.7280
246.45 52.3554
246.50 52.4679
246.55 51.7293
246.60 51.2602
246.65 50.9795
246.70 53.2604
246.75 56.3080
246.80 57.3621
246.85 57.5779
246.90 57.1908
246.95 56.0210
247.00 55.1707
247.05 56.1454
247.10 60.3625
247.15 59.7096
247.20 54.0259
247.25 47.6185
247.30 44.1056
247.35 53.8161
247.40 63.9566
247.45 65.5145
247.50 64.8029
247.55 64.0831
247.60 62.5245
247.65 60.6834
247.70 60.0112
247.75 58.6936
247.80 54.9005
247.85 51.9086
247.90 47.5456
247.95 43.9565
248.00 47.4542
248.05 55.6253
248.10 60.8880
248.15 58.2677
248.20 48.8274
248.25 39.3217
248.30 33.7898
248.35 30.1050
248.40 36.6411
248.45 45.0338
248.50 50.0088
248.55 55.7201
248.60 54.8603
248.65 51.2203
248.70 47.4488
248.75 40.9994
248.80 35.8022
248.85 35.7300
248.90 36.8612
248.95 36.2608
249.00 33.1126
249.05 30.3086
249.10 30.7290
249.15 36.1420
249.20 44.5930
249.25 51.6718
249.30 55.5409
249.35 57.2670
249.40 62.3301
249.45 69.5855
249.50 74.5871
249.55 73.1733
249.60 67.3013
249.65 65.3787
249.70 68.4738
249.75 70.5035
249.80 69.0971
249.85 68.5245
249.90 71.5298
249.95 75.5030
250.00 76.1500
250.05 64.4403
250.10 49.8788
250.15 47.3926
250.20 53.6237
250.25 61.4225
250.30 65.8104
250.35 68.0829
250.40 70.9431
250.45 69.7284
250.50 63.0649
250.55 55.6038
250.60 47.9738
250.65 41.1563
250.70 39.0450
250.75 44.4024
250.80 53.8325
250.85 62.9725
250.90 67.8032
250.95 69.2658
251.00 68.1518
251.05 61.1746
251.10 53.4096
251.15 53.0020
251.20 54.5541
251.25 54.7189
251.30 51.8762
251.35 47.4952
251.40 42.7066
251.45 39.1816
251.50 39.1920
251.55 38.1167
251.60 35.2574
251.65 35.0323
251.70 38.1016
251.75 40.3436
251.80 40.2643
251.85 39.7545
251.90 39.2332
251.95 42.1645
252.00 48.1029
252.05 52.1218
252.10 52.2950
252.15 48.5770
252.20 43.6397
252.25 39.2657
252.30 36.3825
252.35 35.5028
252.40 35.8933
252.45 37.6504
252.50 42.0415
252.55 46.8246
252.60 49.3803
252.65 49.7503
252.70 46.6011
252.75 40.4576
252.80 35.9469
252.85 33.8528
252.90 32.6200
252.95 37.4217
253.00 45.6183
253.05 53.1144
253.10 60.2842
253.15 62.0586
253.20 60.0102
253.25 58.0373
253.30 57.3228
253.35 56.6490
253.40 56.6782
253.45 56.9824
253.50 55.2443
253.55 52.2393
253.60 50.9264
253.65 52.0664
253.70 53.8745
253.75 57.0759
253.80 57.2701
253.85 54.3254
253.90 54.6418
253.95 59.8701
254.00 62.0080
254.05 57.2832
254.10 53.8235
254.15 55.1528
254.20 58.5407
254.25 63.1582
254.30 68.2737
254.35 69.4536
254.40 67.4037
254.45 64.5117
254.50 62.5366
254.55 60.0226
254.60 55.9744
254.65 55.9841
254.70 59.7457
254.75 62.1066
254.80 60.0226
254.85 54.0315
254.90 49.3788
254.95 49.2501
255.00 55.1060
255.05 66.9730
255.10 79.0009
255.15 88.3209
255.20 94.1826
255.25 87.5384
255.30 81.6688
255.35 87.5715
255.40 95.0118
255.45 94.9658
255.50 86.9024
255.55 82.5621
255.60 84.6683
255.65 84.4597
255.70 80.5222
255.75 80.7128
255.80 87.0150
255.85 97.8443
255.90 105.657
255.95 103.413
256.00 98.3326
256.05 96.8804
256.10 93.5623
256.15 85.2573
256.20 76.4434
256.25 68.7746
256.30 66.1453
256.35 71.4608
256.40 80.0574
256.45 88.7708
256.50 101.217
256.55 118.526
256.60 128.376
256.65 126.362
256.70 120.936
256.75 119.251
256.80 119.818
256.85 119.886
256.90 126.803
256.95 137.728
257.00 142.529
257.05 138.411
257.10 132.450
257.15 133.877
257.20 136.271
257.25 137.892
257.30 147.443
257.35 153.785
257.40 145.470
257.45 125.969
257.50 101.631
257.55 79.3285
257.60 70.0907
257.65 78.8106
257.70 93.2001
257.75 107.449
257.80 124.222
257.85 135.329
257.90 142.046
257.95 152.058
258.00 162.595
258.05 170.512
258.10 183.995
258.15 193.474
258.20 163.139
258.25 123.574
258.30 117.220
258.35 128.584
258.40 124.004
258.45 101.154
258.50 84.8803
258.55 70.3361
258.60 63.9315
258.65 78.5413
258.70 99.7582
258.75 112.767
258.80 121.800
258.85 145.619
258.90 173.048
258.95 191.367
259.00 183.032
259.05 153.667
259.10 128.831
259.15 115.021
259.20 120.652
259.25 120.055
259.30 106.813
259.35 88.3890
259.40 80.8524
259.45 99.5230
259.50 119.393
259.55 124.268
259.60 119.528
259.65 110.756
259.70 99.1717
259.75 84.4038
259.80 65.6992
259.85 48.6731
259.90 41.1487
259.95 42.7271
260.00 51.9080
260.05 72.4639
260.10 97.8096
260.15 114.981
260.20 123.682
260.25 127.146
260.30 125.512
260.35 119.798
260.40 114.855
260.45 108.743
260.50 93.4144
260.55 78.1843
260.60 69.7729
260.65 61.5562
260.70 58.6829
260.75 67.7082
260.80 80.6136
260.85 92.3810
260.90 101.750
260.95 106.335
261.00 108.548
261.05 100.498
261.10 79.7207
261.15 61.8225
261.20 55.9271
261.25 61.0396
261.30 67.7485
261.35 67.3543
261.40 65.5376
261.45 76.2238
261.50 100.057
261.55 120.206
261.60 125.793
261.65 122.443
261.70 106.481
261.75 85.6021
261.80 79.2089
261.85 87.7340
261.90 110.873
261.95 130.587
262.00 131.522
262.05 122.492
262.10 113.767
262.15 109.868
262.20 118.916
262.25 133.630
262.30 136.875
262.35 136.553
262.40 140.193
262.45 137.889
262.50 120.490
262.55 96.3196
262.60 88.1412
262.65 97.6364
262.70 107.716
262.75 102.594
262.80 88.5468
262.85 84.2088
262.90 91.0239
262.95 98.1250
263.00 91.8108
263.05 77.1706
263.10 65.2523
263.15 62.5458
263.20 74.1097
263.25 92.7047
263.30 113.239
263.35 134.479
263.40 160.019
263.45 176.789
263.50 177.586
263.55 175.699
263.60 191.346
263.65 213.437
263.70 226.307
263.75 249.903
263.80 282.362
263.85 298.763
263.90 295.032
263.95 274.999
264.00 251.192
264.05 239.012
264.10 234.075
264.15 236.063
264.20 273.853
264.25 329.593
264.30 353.027
264.35 348.663
264.40 319.743
264.45 283.195
264.50 268.202
264.55 256.615
264.60 242.295
264.65 237.325
264.70 235.588
264.75 224.163
264.80 202.202
264.85 183.873
264.90 188.295
264.95 206.233
265.00 217.606
265.05 219.960
265.10 219.773
265.15 224.038
265.20 231.889
265.25 246.319
265.30 256.940
265.35 255.145
265.40 268.879
265.45 307.511
265.50 328.594
265.55 311.417
265.60 284.012
265.65 283.014
265.70 297.868
265.75 296.394
265.80 279.701
265.85 262.796
265.90 272.162
265.95 294.255
266.00 299.037
266.05 292.753
266.10 267.799
266.15 238.730
266.20 235.046
266.25 250.941
266.30 243.123
266.35 216.451
266.40 209.262
266.45 238.616
266.50 277.927
266.55 277.645
266.60 239.136
266.65 209.019
266.70 231.876
266.75 276.766
266.80 278.716
266.85 260.858
266.90 239.067
266.95 225.556
267.00 251.382
267.05 286.911
267.10 304.741
267.15 256.818
267.20 192.572
267.25 190.521
267.30 199.813
267.35 249.779
267.40 307.657
267.45 323.615
267.50 326.050
267.55 316.737
267.60 305.040
267.65 290.045
267.70 263.610
267.75 244.451
267.80 226.531
267.85 209.957
267.90 208.301
267.95 220.342
268.00 239.463
268.05 255.120
268.10 266.497
268.15 272.320
268.20 270.323
268.25 264.188
268.30 256.292
268.35 249.910
268.40 242.100
268.45 241.101
268.50 251.315
268.55 266.424
268.60 277.942
268.65 280.045
268.70 278.018
268.75 266.004
268.80 248.867
268.85 235.474
268.90 222.126
268.95 208.863
269.00 207.559
269.05 220.049
269.10 236.504
269.15 251.318
269.20 258.915
269.25 260.284
269.30 263.201
269.35 274.583
269.40 276.842
269.45 241.908
269.50 196.733
269.55 181.001
269.60 193.890
269.65 225.223
269.70 249.565
269.75 245.000
269.80 231.834
269.85 224.277
269.90 258.831
269.95 313.278
270.00 342.384
270.05 330.968
270.10 286.007
270.15 253.550
270.20 259.581
270.25 285.934
270.30 300.449
270.35 297.935
270.40 299.302
270.45 328.831
270.50 339.290
270.55 298.869
270.60 260.949
270.65 246.508
270.70 254.446
270.75 265.588
270.80 261.390
270.85 250.087
270.90 253.984
270.95 268.853
271.00 271.800
271.05 267.860
271.10 254.067
271.15 258.598
271.20 277.548
271.25 305.707
271.30 321.509
271.35 271.931
271.40 211.013
271.45 187.865
271.50 193.486
271.55 228.398
271.60 253.541
271.65 261.707
271.70 259.307
271.75 231.514
271.80 184.984
271.85 144.267
271.90 119.615
271.95 118.733
272.00 125.656
272.05 132.518
272.10 142.550
272.15 174.020
272.20 205.251
272.25 214.879
272.30 208.340
272.35 188.370
272.40 181.286
272.45 188.625
272.50 199.785
272.55 212.915
272.60 215.379
272.65 208.608
272.70 195.640
272.75 187.617
272.80 224.304
272.85 262.361
272.90 301.380
272.95 334.107
273.00 309.942
273.05 265.865
273.10 251.841
273.15 260.876
273.20 264.504
273.25 248.972
273.30 212.023
273.35 184.581
273.40 186.781
273.45 201.716
273.50 209.747
273.55 210.454
273.60 199.013
273.65 167.341
273.70 134.158
273.75 132.734
273.80 162.431
273.85 170.689
273.90 148.469
273.95 124.758
274.00 126.541
274.05 151.437
274.10 163.839
274.15 157.662
274.20 135.331
274.25 109.166
274.30 98.9159
274.35 99.8887
274.40 113.433
274.45 143.323
274.50 173.274
274.55 181.801
274.60 147.461
274.65 112.554
274.70 107.920
274.75 125.749
274.80 148.423
274.85 142.064
274.90 111.498
274.95 89.8411
275.00 93.2371
275.05 121.328
275.10 166.488
275.15 206.698
275.20 231.526
275.25 240.507
275.30 226.669
275.35 204.122
275.40 185.199
275.45 167.574
275.50 140.691
275.55 113.991
275.60 103.946
275.65 123.060
275.70 166.331
275.75 218.859
275.80 265.753
275.85 306.596
275.90 305.715
275.95 277.022
276.00 264.730
276.05 268.712
276.10 255.861
276.15 222.119
276.20 190.408
276.25 186.596
276.30 219.662
276.35 254.975
276.40 273.083
276.45 295.187
276.50 314.111
276.55 307.581
276.60 280.302
276.65 256.958
276.70 249.604
276.75 246.824
276.80 237.805
276.85 226.075
276.90 219.208
276.95 234.202
277.00 263.808
277.05 284.401
277.10 291.735
277.15 278.190
277.20 251.972
277.25 244.077
277.30 268.297
277.35 295.976
277.40 299.229
277.45 287.101
277.50 272.107
277.55 256.816
277.60 237.786
277.65 222.812
277.70 223.645
277.75 220.685
277.80 195.545
277.85 176.949
277.90 173.433
277.95 171.448
278.00 169.459
278.05 169.825
278.10 171.170
278.15 175.689
278.20 182.676
278.25 179.405
278.30 170.978
278.35 166.959
278.40 173.129
278.45 181.915
278.50 185.273
278.55 185.845
278.60 184.084
278.65 182.354
278.70 177.737
278.75 161.183
278.80 144.586
278.85 137.021
278.90 135.188
278.95 129.657
279.00 120.922
279.05 112.476
279.10 104.436
279.15 102.128
279.20 95.8008
279.25 89.0447
279.30 80.6262
279.35 72.9253
279.40 66.8666
279.45 66.7834
279.50 84.2647
279.55 99.6628
279.60 94.0987
279.65 73.1124
279.70 61.6067
279.75 62.9862
279.80 66.6568
279.85 74.3290
279.90 82.7943
279.95 87.8641
280.00 87.9615
280.05 81.8196
280.10 72.6980
280.15 72.4834
280.20 78.3242
280.25 86.3476
280.30 84.7995
280.35 76.8439
280.40 73.3539
280.45 80.1617
280.50 94.9200
280.55 107.028
280.60 112.484
280.65 119.202
280.70 129.024
280.75 141.502
280.80 151.597
280.85 160.499
280.90 171.648
280.95 180.015
281.00 181.841
281.05 179.561
281.10 178.025
281.15 179.205
281.20 181.031
281.25 180.516
281.30 189.385
281.35 222.764
281.40 244.112
281.45 262.225
281.50 270.781
281.55 264.057
281.60 256.137
281.65 249.548
281.70 248.457
281.75 257.166
281.80 269.577
281.85 277.648
281.90 289.113
281.95 303.962
282.00 310.067
282.05 309.482
282.10 302.714
282.15 296.635
282.20 291.986
282.25 296.052
282.30 314.246
282.35 338.560
282.40 358.201
282.45 341.469
282.50 300.332
282.55 283.161
282.60 292.312
282.65 307.426
282.70 316.282
282.75 317.783
282.80 322.231
282.85 329.737
282.90 343.617
282.95 363.103
283.00 365.485
283.05 361.168
283.10 359.202
283.15 352.600
283.20 337.525
283.25 329.474
283.30 345.368
283.35 352.181
283.40 333.797
283.45 302.030
283.50 263.543
283.55 240.162
283.60 282.538
283.65 338.047
283.70 364.032
283.75 370.533
283.80 363.979
283.85 352.888
283.90 348.536
283.95 337.522
284.00 306.665
284.05 285.206
284.10 295.452
284.15 325.782
284.20 335.337
284.25 295.515
284.30 243.011
284.35 218.839
284.40 247.962
284.45 296.081
284.50 296.121
284.55 269.712
284.60 242.099
284.65 223.844
284.70 207.460
284.75 194.519
284.80 173.644
284.85 150.554
284.90 133.958
284.95 123.645
285.00 110.454
285.05 95.1625
285.10 78.9791
285.15 64.8328
285.20 53.6260
285.25 52.5055
285.30 66.8546
285.35 84.0633
285.40 100.206
285.45 120.023
285.50 136.788
285.55 148.818
285.60 160.758
285.65 181.666
285.70 209.419
285.75 223.349
285.80 224.170
285.85 239.097
285.90 283.208
285.95 319.780
286.00 336.222
286.05 334.317
286.10 333.246
286.15 339.192
286.20 339.711
286.25 332.754
286.30 344.418
286.35 363.273
286.40 379.343
286.45 379.347
286.50 366.248
286.55 370.461
286.60 380.879
286.65 370.170
286.70 335.190
286.75 315.657
286.80 314.108
286.85 307.189
286.90 299.309
286.95 322.553
287.00 370.135
287.05 411.282
287.10 446.904
287.15 464.280
287.20 449.869
287.25 433.243
287.30 403.572
287.35 368.489
287.40 360.396
287.45 376.620
287.50 383.245
287.55 358.632
287.60 334.024
287.65 334.367
287.70 360.326
287.75 373.214
287.80 355.383
287.85 322.107
287.90 282.826
287.95 253.471
288.00 228.294
288.05 185.530
288.10 149.708
288.15 129.766
288.20 152.149
288.25 198.200
288.30 239.819
288.35 287.511
288.40 361.757
288.45 412.737
288.50 443.473
288.55 449.411
288.60 434.579
288.65 422.026
288.70 414.996
288.75 408.206
288.80 411.766
288.85 421.987
288.90 419.145
288.95 408.043
289.00 411.814
289.05 416.273
289.10 413.797
289.15 418.842
289.20 425.127
289.25 426.657
289.30 425.662
289.35 424.604
289.40 433.004
289.45 454.000
289.50 488.910
289.55 527.572
289.60 549.963
289.65 548.768
289.70 546.147
289.75 541.680
289.80 536.457
289.85 545.204
289.90 583.760
289.95 630.472
290.00 675.138
290.05 687.081
290.10 652.053
290.15 598.854
290.20 567.846
290.25 607.235
290.30 663.878
290.35 689.101
290.40 694.337
290.45 688.290
290.50 673.786
290.55 651.340
290.60 621.396
290.65 611.759
290.70 604.764
290.75 595.243
290.80 581.436
290.85 575.068
290.90 579.249
290.95 588.216
291.00 588.281
291.05 580.954
291.10 586.822
291.15 597.035
291.20 616.070
291.25 672.754
291.30 722.760
291.35 698.561
291.40 632.211
291.45 585.085
291.50 546.462
291.55 542.085
291.60 557.516
291.65 579.785
291.70 573.645
291.75 542.214
291.80 521.462
291.85 546.172
291.90 580.836
291.95 594.268
292.00 588.335
292.05 581.011
292.10 593.565
292.15 602.203
292.20 597.585
292.25 583.685
292.30 531.813
292.35 489.571
292.40 488.667
292.45 503.756
292.50 495.486
292.55 458.686
292.60 441.097
292.65 447.616
292.70 483.821
292.75 502.970
292.80 458.959
292.85 407.807
292.90 406.210
292.95 526.681
293.00 634.016
293.05 662.772
293.10 655.516
293.15 669.489
293.20 676.839
293.25 657.190
293.30 618.230
293.35 597.791
293.40 630.034
293.45 671.308
293.50 698.293
293.55 655.816
293.60 514.082
293.65 383.811
293.70 343.626
293.75 386.458
293.80 450.872
293.85 479.154
293.90 475.860
293.95 504.043
294.00 547.017
294.05 540.373
294.10 495.759
294.15 469.161
294.20 546.495
294.25 625.781
294.30 633.477
294.35 588.021
294.40 532.924
294.45 513.826
294.50 541.117
294.55 617.201
294.60 679.365
294.65 632.119
294.70 521.199
294.75 401.384
294.80 322.447
294.85 327.065
294.90 370.613
294.95 422.058
295.00 497.976
295.05 574.777
295.10 627.330
295.15 663.742
295.20 687.135
295.25 689.233
295.30 613.116
295.35 493.430
295.40 441.166
295.45 529.935
295.50 620.476
295.55 649.800
295.60 629.070
295.65 544.583
295.70 494.961
295.75 499.932
295.80 596.166
295.85 676.082
295.90 671.959
295.95 624.621
296.00 573.605
296.05 560.141
296.10 573.544
296.15 613.974
296.20 661.098
296.25 715.386
296.30 730.167
296.35 698.533
296.40 644.254
296.45 515.698
296.50 401.629
296.55 348.477
296.60 324.097
296.65 289.654
296.70 322.030
296.75 405.819
296.80 474.937
296.85 508.278
296.90 445.960
296.95 364.206
297.00 320.427
297.05 362.454
297.10 479.980
297.15 553.459
297.20 542.238
297.25 467.953
297.30 365.358
297.35 388.517
297.40 483.810
297.45 595.263
297.50 653.778
297.55 633.787
297.60 605.927
297.65 641.733
297.70 753.784
297.75 824.704
297.80 817.105
297.85 732.149
297.90 627.837
297.95 576.023
298.00 562.668
298.05 537.779
298.10 458.857
298.15 384.947
298.20 386.293
298.25 422.779
298.30 395.417
298.35 322.318
298.40 288.991
298.45 298.839
298.50 310.673
298.55 334.058
298.60 386.540
298.65 427.383
298.70 431.465
298.75 432.155
298.80 464.284
298.85 514.256
298.90 567.350
298.95 640.149
299.00 706.408
299.05 718.687
299.10 696.925
299.15 637.971
299.20 588.960
299.25 574.488
299.30 578.693
299.35 498.753
299.40 385.165
299.45 321.784
299.50 336.723
299.55 458.313
299.60 578.566
299.65 632.692
299.70 664.061
299.75 696.539
299.80 659.941
299.85 572.534
299.90 469.356
299.95 369.510
300.00 305.720
300.05 285.566
300.10 286.355
300.15 312.709
300.20 317.969
300.25 301.282
300.30 283.849
300.35 356.952
300.40 477.596
300.45 561.838
300.50 592.003
300.55 602.932
300.60 536.866
300.65 472.269
300.70 421.746
300.75 380.274
300.80 357.791
300.85 369.835
300.90 408.278
300.95 446.776
301.00 528.539
301.05 615.515
301.10 613.796
301.15 551.345
301.20 505.857
301.25 544.269
301.30 587.862
301.35 591.611
301.40 583.768
301.45 575.900
301.50 576.340
301.55 571.843
301.60 567.654
301.65 528.885
301.70 484.500
301.75 433.992
301.80 398.541
301.85 371.851
301.90 350.877
301.95 313.363
302.00 257.425
302.05 186.154
302.10 248.020
302.15 294.420
302.20 428.728
302.25 563.992
302.30 625.530
302.35 629.928
302.40 586.592
302.45 536.081
302.50 481.029
302.55 416.065
302.60 425.615
302.65 525.102
302.70 681.577
302.75 784.389
302.80 830.222
302.85 784.117
302.90 708.661
302.95 654.661
303.00 632.677
303.05 617.140
303.10 591.455
303.15 637.122
303.20 692.371
303.25 762.253
303.30 806.724
303.35 781.983
303.40 752.357
303.45 760.033
303.50 783.654
303.55 796.068
303.60 788.162
303.65 661.620
303.70 481.649
303.75 422.092
303.80 422.949
303.85 513.452
303.90 633.981
303.95 657.439
304.00 633.632
304.05 618.734
304.10 558.547
304.15 501.340
304.20 534.210
304.25 532.672
304.30 607.080
304.35 707.973
304.40 747.435
304.45 744.581
304.50 753.843
304.55 748.195
304.60 761.041
304.65 668.242
304.70 541.042
304.75 455.786
304.80 449.788
304.85 532.080
304.90 653.010
304.95 722.511
305.00 693.956
305.05 651.117
305.10 679.788
305.15 817.507
305.20 845.252
305.25 851.510
305.30 839.967
305.35 679.520
305.40 572.026
305.45 598.701
305.50 628.713
305.55 653.669
305.60 673.194
305.65 599.732
305.70 457.586
305.75 369.048
305.80 338.999
305.85 340.999
305.90 367.520
305.95 407.622
306.00 540.922
306.05 650.161
306.10 697.406
306.15 736.322
306.20 746.982
306.25 725.110
306.30 710.492
306.35 634.278
306.40 552.786
306.45 556.674
306.50 595.943
306.55 622.123
306.60 545.669
306.65 474.413
306.70 430.016
306.75 438.794
306.80 511.032
306.85 603.018
306.90 682.054
306.95 731.924
307.00 746.956
307.05 731.855
307.10 732.874
307.15 675.958
307.20 639.071
307.25 657.589
307.30 682.473
307.35 697.862
307.40 716.013
307.45 651.176
307.50 582.299
307.55 534.366
307.60 580.223
307.65 687.819
307.70 733.774
307.75 711.004
307.80 653.723
307.85 642.970
307.90 712.193
307.95 766.235
308.00 756.915
308.05 725.657
308.10 637.452
308.15 560.023
308.20 532.155
308.25 533.882
308.30 575.278
308.35 577.756
308.40 666.013
308.45 785.521
308.50 839.283
308.55 825.912
308.60 814.469
308.65 744.661
308.70 646.195
308.75 594.291
308.80 580.505
308.85 607.220
308.90 647.449
308.95 640.622
309.00 611.232
309.05 574.414
309.10 517.668
309.15 475.401
309.20 461.806
309.25 417.931
309.30 388.453
309.35 382.376
309.40 456.566
309.45 591.521
309.50 669.958
309.55 622.955
309.60 574.050
309.65 501.495
309.70 434.925
309.75 481.750
309.80 562.650
309.85 607.319
309.90 572.391
309.95 456.438
310.00 346.590
310.05 296.848
310.10 304.515
310.15 333.745
310.20 408.349
310.25 497.874
310.30 616.362
310.35 733.583
310.40 782.935
310.45 778.360
310.50 760.076
310.55 736.229
310.60 753.292
310.65 770.137
310.70 803.976
310.75 843.704
310.80 891.817
310.85 911.162
310.90 910.401
310.95 850.654
311.00 785.826
311.05 738.687
311.10 746.835
311.15 791.384
311.20 837.936
311.25 871.049
311.30 891.142
311.35 846.245
311.40 770.680
311.45 746.014
311.50 784.222
311.55 820.755
311.60 807.402
311.65 716.689
311.70 655.875
311.75 651.051
311.80 644.386
311.85 639.878
311.90 633.706
311.95 616.955
312.00 605.336
312.05 605.352
312.10 609.233
312.15 601.957
312.20 606.645
312.25 666.540
312.30 714.613
312.35 770.797
312.40 805.308
312.45 769.367
312.50 696.027
312.55 633.356
312.60 624.833
312.65 672.804
312.70 719.833
312.75 746.128
312.80 741.335
312.85 729.721
312.90 729.579
312.95 748.969
313.00 746.688
313.05 718.904
313.10 702.199
313.15 704.900
313.20 703.933
313.25 702.173
313.30 697.349
313.35 682.248
313.40 647.573
313.45 659.761
313.50 709.731
313.55 746.136
313.60 737.497
313.65 737.711
313.70 767.095
313.75 802.988
313.80 859.400
313.85 900.306
313.90 886.238
313.95 852.354
314.00 822.944
314.05 822.067
314.10 860.118
314.15 867.131
314.20 876.807
314.25 740.686
314.30 577.815
314.35 471.425
314.40 398.726
314.45 360.771
314.50 470.451
314.55 576.085
314.60 621.280
314.65 653.567
314.70 649.857
314.75 660.805
314.80 670.244
314.85 763.948
314.90 831.438
314.95 820.230
315.00 796.910
315.05 760.151
315.10 762.546
315.15 764.327
315.20 758.518
315.25 770.219
315.30 780.572
315.35 788.438
315.40 763.489
315.45 731.069
315.50 723.343
315.55 729.918
315.60 698.737
315.65 681.243
315.70 570.177
315.75 470.522
315.80 440.467
315.85 430.716
315.90 433.362
315.95 461.871
316.00 485.608
316.05 491.055
316.10 486.388
316.15 504.020
316.20 548.497
316.25 616.211
316.30 674.420
316.35 708.058
316.40 702.107
316.45 678.331
316.50 565.072
316.55 626.124
316.60 691.748
316.65 695.719
316.70 727.630
316.75 766.014
316.80 736.624
316.85 691.808
316.90 686.810
316.95 734.292
317.00 822.834
317.05 887.108
317.10 933.595
317.15 962.467
317.20 952.833
317.25 953.661
317.30 945.840
317.35 921.780
317.40 878.331
317.45 848.032
317.50 834.714
317.55 860.662
317.60 923.241
317.65 939.638
317.70 948.636
317.75 899.062
317.80 774.253
317.85 677.982
317.90 607.701
317.95 542.878
318.00 524.584
318.05 545.172
318.10 550.190
318.15 539.675
318.20 546.764
318.25 581.486
318.30 599.755
318.35 618.206
318.40 643.308
318.45 660.027
318.50 681.621
318.55 704.927
318.60 739.510
318.65 743.257
318.70 730.875
318.75 742.901
318.80 765.903
318.85 825.055
318.90 925.872
318.95 977.086
319.00 910.902
319.05 803.615
319.10 713.246
319.15 662.739
319.20 577.655
319.25 493.899
319.30 517.487
319.35 559.743
319.40 628.667
319.45 695.198
319.50 716.598
319.55 720.311
319.60 722.063
319.65 701.819
319.70 688.174
319.75 758.736
319.80 809.215
319.85 875.764
319.90 943.354
319.95 914.993
320.00 793.823
320.05 754.439
320.10 810.173
320.15 878.740
320.20 885.046
320.25 854.033
320.30 864.967
320.35 887.415
320.40 944.670
320.45 982.950
320.50 946.907
320.55 910.989
320.60 924.654
320.65 949.285
320.70 961.973
320.75 935.283
320.80 869.797
320.85 790.577
320.90 752.759
320.95 710.865
321.00 707.093
321.05 667.757
321.10 617.671
321.15 599.981
321.20 593.900
321.25 597.683
321.30 612.860
321.35 580.855
321.40 558.912
321.45 591.848
321.50 662.799
321.55 732.905
321.60 759.671
321.65 743.691
321.70 705.326
321.75 727.550
321.80 811.786
321.85 898.662
321.90 908.323
321.95 881.807
322.00 860.327
322.05 895.713
322.10 885.487
322.15 799.845
322.20 707.568
322.25 664.613
322.30 672.843
322.35 774.203
322.40 838.680
322.45 840.181
322.50 781.094
322.55 677.258
322.60 623.565
322.65 629.313
322.70 648.177
322.75 626.874
322.80 586.978
322.85 561.859
322.90 548.869
322.95 541.496
323.00 587.486
323.05 610.729
323.10 673.280
323.15 761.419
323.20 795.831
323.25 803.104
323.30 775.113
323.35 713.844
323.40 623.031
323.45 597.794
323.50 620.022
323.55 676.627
323.60 669.657
323.65 629.225
323.70 639.252
323.75 722.495
323.80 780.812
323.85 808.464
323.90 747.090
323.95 695.527
324.00 794.692
324.05 876.850
324.10 903.757
324.15 864.217
324.20 826.297
324.25 813.166
324.30 793.818
324.35 791.034
324.40 778.047
324.45 815.790
324.50 859.001
324.55 888.979
324.60 922.911
324.65 888.193
324.70 856.975
324.75 776.707
324.80 713.684
324.85 711.890
324.90 734.688
324.95 761.392
325.00 772.661
325.05 767.356
325.10 769.209
325.15 796.291
325.20 825.918
325.25 840.516
325.30 837.569
325.35 832.430
325.40 805.153
325.45 895.561
325.50 979.851
325.55 1058.50
325.60 1064.47
325.65 1039.08
325.70 1004.97
325.75 990.001
325.80 991.746
325.85 1052.53
325.90 1100.42
325.95 1110.27
326.00 1109.02
326.05 1067.95
326.10 1053.12
326.15 1020.62
326.20 1007.29
326.25 1040.95
326.30 1067.64
326.35 1037.95
326.40 955.688
326.45 887.310
326.50 869.946
326.55 907.134
326.60 963.190
326.65 1053.89
326.70 1092.10
326.75 1078.50
326.80 1077.89
326.85 1075.51
326.90 1068.47
326.95 1048.29
327.00 1025.32
327.05 987.937
327.10 909.796
327.15 881.630
327.20 933.701
327.25 980.195
327.30 1039.05
327.35 1026.14
327.40 1013.46
327.45 1026.11
327.50 1064.07
327.55 1062.62
327.60 1029.09
327.65 961.141
327.70 945.320
327.75 953.593
327.80 985.299
327.85 983.065
327.90 950.666
327.95 924.169
328.00 923.807
328.05 954.353
328.10 994.698
328.15 982.046
328.20 962.327
328.25 918.761
328.30 934.557
328.35 973.388
328.40 1000.18
328.45 1021.85
328.50 962.202
328.55 922.073
328.60 861.515
328.65 812.980
328.70 752.595
328.75 774.711
328.80 836.597
328.85 898.890
328.90 979.327
328.95 1073.80
329.00 1143.13
329.05 1146.80
329.10 1117.05
329.15 1088.88
329.20 1068.95
329.25 1079.23
329.30 1102.21
329.35 1163.92
329.40 1192.53
329.45 1194.43
329.50 1149.43
329.55 1111.86
329.60 1121.92
329.65 1138.30
329.70 1158.34
329.75 1157.64
329.80 1135.50
329.85 1108.74
329.90 1107.03
329.95 1163.84
330.00 1267.53
330.05 1333.19
330.10 1302.48
330.15 1217.68
330.20 1101.72
330.25 994.846
330.30 965.691
330.35 1014.87
330.40 1076.80
330.45 1029.78
330.50 1009.61
330.55 930.553
330.60 824.679
330.65 778.553
330.70 823.882
330.75 897.505
330.80 992.023
330.85 1048.70
330.90 1068.51
330.95 1081.53
331.00 1068.23
331.05 1051.67
331.10 1059.60
331.15 1064.58
331.20 1046.78
331.25 1003.91
331.30 989.423
331.35 966.108
331.40 938.820
331.45 891.567
331.50 874.969
331.55 901.131
331.60 974.203
331.65 1041.20
331.70 1063.05
331.75 1069.78
331.80 1087.12
331.85 1089.56
331.90 1092.17
331.95 1075.60
332.00 1041.79
332.05 1028.25
332.10 1008.16
332.15 1030.46
332.20 957.548
332.25 862.655
332.30 805.910
332.35 789.337
332.40 863.922
332.45 942.196
332.50 1040.85
332.55 1090.91
332.60 1124.95
332.65 1078.12
332.70 1015.81
332.75 982.747
332.80 992.852
332.85 966.609
332.90 920.294
332.95 875.569
333.00 864.691
333.05 956.347
333.10 1035.64
333.15 1076.44
333.20 1043.04
333.25 1024.04
333.30 1047.14
333.35 1083.53
333.40 1042.06
333.45 957.978
333.50 902.253
333.55 827.544
333.60 775.991
333.65 744.028
333.70 781.664
333.75 821.676
333.80 900.209
333.85 972.280
333.90 1002.75
333.95 966.355
334.00 971.148
334.05 973.948
334.10 993.102
334.15 972.972
334.20 955.458
334.25 912.202
334.30 983.931
334.35 1053.83
334.40 1093.50
334.45 1099.70
334.50 1094.85
334.55 1098.47
334.60 1113.01
334.65 1098.79
334.70 1081.39
334.75 1063.28
334.80 1052.37
334.85 938.502
334.90 792.220
334.95 701.248
335.00 738.891
335.05 833.271
335.10 1012.73
335.15 1092.15
335.20 1108.30
335.25 1106.41
335.30 1095.15
335.35 1051.08
335.40 1021.96
335.45 1033.01
335.50 1087.65
335.55 1157.67
335.60 1159.11
335.65 1149.79
335.70 1128.97
335.75 1092.87
335.80 1039.37
335.85 900.765
335.90 740.280
335.95 606.795
336.00 527.253
336.05 493.489
336.10 469.835
336.15 493.997
336.20 618.732
336.25 681.441
336.30 841.230
336.35 957.611
336.40 1011.31
336.45 1035.06
336.50 1087.95
336.55 1080.49
336.60 1018.36
336.65 952.570
336.70 910.884
336.75 833.655
336.80 783.039
336.85 769.881
336.90 723.456
336.95 680.153
337.00 694.590
337.05 731.728
337.10 755.489
337.15 736.100
337.20 702.976
337.25 690.834
337.30 705.927
337.35 785.028
337.40 867.740
337.45 888.421
337.50 964.711
337.55 1065.62
337.60 1136.22
337.65 1154.08
337.70 1147.20
337.75 1139.62
337.80 1072.90
337.85 957.452
337.90 891.786
337.95 811.815
338.00 686.484
338.05 643.886
338.10 663.631
338.15 833.756
338.20 980.460
338.25 1010.77
338.30 989.233
338.35 932.164
338.40 924.498
338.45 953.814
338.50 1016.31
338.55 1047.88
338.60 1083.35
338.65 1140.51
338.70 1122.93
338.75 1087.70
338.80 939.769
338.85 893.587
338.90 1001.27
338.95 1095.28
339.00 1157.76
339.05 1117.94
339.10 1012.13
339.15 963.303
339.20 848.779
339.25 771.417
339.30 721.662
339.35 723.347
339.40 797.861
339.45 895.636
339.50 951.105
339.55 991.158
339.60 1015.53
339.65 1041.40
339.70 1077.70
339.75 1104.82
339.80 1118.23
339.85 1133.20
339.90 1142.66
339.95 1127.61
340.00 1195.79
340.05 1273.46
340.10 1264.86
340.15 1120.32
340.20 1082.28
340.25 1065.72
340.30 1068.95
340.35 1079.77
340.40 1042.81
340.45 1012.64
340.50 1006.96
340.55 1005.75
340.60 1036.67
340.65 1033.55
340.70 941.120
340.75 890.464
340.80 911.361
340.85 944.993
340.90 950.702
340.95 937.572
341.00 944.701
341.05 992.987
341.10 1067.84
341.15 1112.85
341.20 1066.65
341.25 1063.45
341.30 888.188
341.35 834.232
341.40 774.250
341.45 709.712
341.50 717.692
341.55 805.180
341.60 861.322
341.65 973.400
341.70 1007.37
341.75 983.536
341.80 979.813
341.85 1009.26
341.90 1097.89
341.95 1168.20
342.00 1199.70
342.05 1196.73
342.10 1148.93
342.15 1109.11
342.20 1100.50
342.25 1018.64
342.30 923.471
342.35 873.761
342.40 860.925
342.45 894.766
342.50 1012.53
342.55 1081.76
342.60 1089.82
342.65 1054.59
342.70 943.192
342.75 924.110
342.80 980.617
342.85 998.690
342.90 1089.11
342.95 1198.04
343.00 1262.48
343.05 1251.12
343.10 1223.20
343.15 1134.22
343.20 1060.10
343.25 990.906
343.30 938.597
343.35 843.604
343.40 871.637
343.45 977.170
343.50 1128.21
343.55 1183.57
343.60 1147.04
343.65 1084.70
343.70 1013.47
343.75 940.509
343.80 927.364
343.85 952.352
343.90 975.517
343.95 874.698
344.00 800.717
344.05 656.727
344.10 504.557
344.15 511.333
344.20 568.695
344.25 639.887
344.30 668.337
344.35 648.320
344.40 660.128
344.45 723.649
344.50 768.474
344.55 830.951
344.60 813.015
344.65 785.089
344.70 803.562
344.75 887.127
344.80 959.176
344.85 981.191
344.90 993.345
344.95 1004.90
345.00 1069.71
345.05 1148.38
345.10 1199.05
345.15 1123.82
345.20 1030.47
345.25 909.752
345.30 847.316
345.35 857.381
345.40 992.452
345.45 1135.16
345.50 1190.57
345.55 1159.72
345.60 1073.01
345.65 1039.65
345.70 1015.79
345.75 1006.96
345.80 928.341
345.85 850.554
345.90 831.747
345.95 841.788
346.00 822.779
346.05 793.767
346.10 774.681
346.15 751.158
346.20 775.236
346.25 855.441
346.30 981.317
346.35 1032.53
346.40 1100.42
346.45 1136.69
346.50 1090.86
346.55 1025.82
346.60 865.922
346.65 849.734
346.70 912.985
346.75 1025.06
346.80 1099.00
346.85 1121.67
346.90 1060.93
346.95 1038.32
347.00 1107.95
347.05 1180.25
347.10 1200.82
347.15 1174.64
347.20 1011.58
347.25 930.501
347.30 929.000
347.35 929.711
347.40 897.378
347.45 836.978
347.50 750.306
347.55 698.215
347.60 670.297
347.65 677.982
347.70 733.222
347.75 840.167
347.80 932.288
347.85 1017.68
347.90 1059.51
347.95 1053.18
348.00 1046.99
348.05 1032.54
348.10 1023.76
348.15 1034.73
348.20 1015.92
348.25 963.486
348.30 886.178
348.35 854.476
348.40 861.205
348.45 892.626
348.50 895.823
348.55 899.994
348.60 933.533
348.65 1062.49
348.70 1172.32
348.75 1211.00
348.80 1128.91
348.85 1031.60
348.90 866.020
348.95 806.252
349.00 766.388
349.05 721.992
349.10 784.392
349.15 906.405
349.20 915.104
349.25 838.384
349.30 787.316
349.35 895.795
349.40 997.611
349.45 1042.11
349.50 962.025
349.55 888.747
349.60 836.151
349.65 773.446
349.70 722.367
349.75 741.795
349.80 831.744
349.85 960.840
349.90 1150.42
349.95 1211.45
350.00 1199.04
350.05 1172.77
350.10 1150.36
350.15 1147.25
350.20 1135.18
350.25 1159.37
350.30 1253.37
350.35 1313.02
350.40 1302.60
350.45 1157.22
350.50 1078.22
350.55 1036.40
350.60 1026.78
350.65 1025.62
350.70 1068.98
350.75 1133.56
350.80 1180.97
350.85 1184.85
350.90 1144.83
350.95 1040.04
351.00 901.793
351.05 905.804
351.10 972.388
351.15 1019.92
351.20 1011.49
351.25 985.368
351.30 902.804
351.35 837.422
351.40 801.525
351.45 780.290
351.50 811.100
351.55 945.113
351.60 1059.56
351.65 1131.60
351.70 1187.63
351.75 1260.49
351.80 1259.11
351.85 1229.86
351.90 1192.94
351.95 1120.18
352.00 1051.76
352.05 986.891
352.10 936.734
352.15 921.213
352.20 963.039
352.25 971.683
352.30 943.124
352.35 828.859
352.40 744.516
352.45 721.944
352.50 720.943
352.55 706.685
352.60 660.774
352.65 672.668
352.70 796.266
352.75 959.120
352.80 1069.64
352.85 1152.19
352.90 1152.46
352.95 1119.05
353.00 1094.75
353.05 1122.81
353.10 1118.68
353.15 1084.58
353.20 964.757
353.25 889.769
353.30 926.853
353.35 1015.24
353.40 1152.63
353.45 1213.35
353.50 1192.51
353.55 1156.13
353.60 1111.65
353.65 1084.53
353.70 1067.05
353.75 1055.66
353.80 1083.29
353.85 1203.71
353.90 1291.35
353.95 1316.65
354.00 1229.89
354.05 1100.19
354.10 1018.86
354.15 1004.52
354.20 1034.69
354.25 1087.54
354.30 1142.83
354.35 1196.74
354.40 1222.94
354.45 1220.56
354.50 1186.34
354.55 1166.01
354.60 1182.85
354.65 1198.15
354.70 1152.39
354.75 1130.61
354.80 1085.67
354.85 1127.92
354.90 1223.75
354.95 1241.52
355.00 1236.18
355.05 1203.29
355.10 1168.33
355.15 1152.03
355.20 1129.79
355.25 1081.30
355.30 1023.81
355.35 982.025
355.40 932.808
355.45 905.239
355.50 968.943
355.55 1113.10
355.60 1138.21
355.65 1118.52
355.70 1104.86
355.75 1086.03
355.80 1026.62
355.85 973.409
355.90 1001.59
355.95 1032.09
356.00 1055.60
356.05 1067.21
356.10 1062.96
356.15 1095.30
356.20 1157.97
356.25 1233.86
356.30 1283.21
356.35 1281.02
356.40 1189.50
356.45 988.873
356.50 735.741
356.55 572.554
356.60 582.611
356.65 687.272
356.70 845.676
356.75 982.044
356.80 998.743
356.85 916.617
356.90 736.450
356.95 571.702
357.00 533.109
357.05 603.505
357.10 718.722
357.15 799.915
357.20 843.012
357.25 886.856
357.30 941.860
357.35 939.274
357.40 939.077
357.45 930.193
357.50 947.194
357.55 973.536
357.60 1003.32
357.65 1040.04
357.70 1062.07
357.75 1010.69
357.80 894.558
357.85 833.609
357.90 814.489
357.95 814.648
358.00 779.545
358.05 647.777
358.10 472.108
358.15 443.532
358.20 493.471
358.25 591.940
358.30 727.701
358.35 796.553
358.40 798.734
358.45 733.616
358.50 598.170
358.55 507.683
358.60 532.605
358.65 557.256
358.70 588.308
358.75 652.868
358.80 723.928
358.85 779.754
358.90 783.697
358.95 788.466
359.00 829.581
359.05 908.903
359.10 1064.30
359.15 1174.69
359.20 1173.10
359.25 1074.16
359.30 1000.39
359.35 953.332
359.40 994.038
359.45 1040.45
359.50 1088.55
359.55 1163.01
359.60 1216.13
359.65 1257.11
359.70 1259.52
359.75 1209.38
359.80 1182.29
359.85 1154.73
359.90 1163.56
359.95 1199.90
360.00 1294.81
360.05 1340.29
360.10 1348.73
360.15 1214.26
360.20 1057.83
360.25 979.694
360.30 940.661
360.35 942.317
360.40 948.363
360.45 945.467
360.50 906.861
360.55 869.191
360.60 911.406
360.65 979.828
360.70 1032.25
360.75 1025.73
360.80 913.630
360.85 737.384
360.90 638.763
360.95 651.567
361.00 726.343
361.05 795.844
361.10 903.578
361.15 1017.57
361.20 1070.07
361.25 1030.64
361.30 981.803
361.35 910.464
361.40 923.694
361.45 1003.31
361.50 1070.70
361.55 1145.30
361.60 1168.14
361.65 1131.28
361.70 1076.87
361.75 916.238
361.80 709.779
361.85 538.613
361.90 492.197
361.95 582.600
362.00 737.895
362.05 869.465
362.10 893.252
362.15 933.297
362.20 1049.71
362.25 1140.67
362.30 1123.48
362.35 1089.32
362.40 1013.88
362.45 1025.19
362.50 1146.80
362.55 1193.48
362.60 1315.33
362.65 1362.19
362.70 1384.42
362.75 1348.85
362.80 1313.94
362.85 1307.21
362.90 1311.94
362.95 1272.13
363.00 1137.86
363.05 846.457
363.10 706.000
363.15 585.074
363.20 656.080
363.25 817.472
363.30 941.587
363.35 972.737
363.40 952.082
363.45 898.281
363.50 950.577
363.55 1007.47
363.60 1051.65
363.65 1058.52
363.70 1051.59
363.75 1071.36
363.80 1104.84
363.85 1175.84
363.90 1240.48
363.95 1266.81
364.00 1279.44
364.05 1270.20
364.10 1264.42
364.15 1218.72
364.20 1189.22
364.25 1121.33
364.30 1098.48
364.35 1072.06
364.40 1037.26
364.45 965.081
364.50 944.101
364.55 947.839
364.60 1019.23
364.65 1045.87
364.70 915.327
364.75 859.768
364.80 768.645
364.85 855.943
364.90 941.766
364.95 911.700
365.00 920.589
365.05 1023.40
365.10 1092.03
365.15 1105.97
365.20 1150.68
365.25 1276.07
365.30 1343.75
365.35 1297.40
365.40 1288.14
365.45 1280.05
365.50 1265.00
365.55 1240.82
365.60 1264.49
365.65 1328.13
365.70 1349.34
365.75 1329.55
365.80 1332.67
365.85 1393.09
365.90 1430.83
365.95 1418.78
366.00 1379.73
366.05 1367.32
366.10 1390.04
366.15 1396.13
366.20 1385.19
366.25 1323.39
366.30 1261.38
366.35 1205.34
366.40 1182.14
366.45 1214.37
366.50 1301.98
366.55 1343.21
366.60 1299.61
366.65 1271.98
366.70 1257.32
366.75 1282.08
366.80 1307.41
366.85 1249.44
366.90 1141.86
366.95 1079.89
367.00 1071.89
367.05 1140.16
367.10 1230.12
367.15 1366.60
367.20 1429.02
367.25 1432.63
367.30 1367.94
367.35 1289.11
367.40 1274.19
367.45 1285.49
367.50 1339.76
367.55 1379.03
367.60 1374.58
367.65 1250.72
367.70 1182.66
367.75 1067.66
367.80 1071.85
367.85 1126.85
367.90 1126.32
367.95 1068.32
368.00 995.617
368.05 1005.34
368.10 1058.06
368.15 1155.26
368.20 1184.28
368.25 1183.39
368.30 1205.36
368.35 1273.67
368.40 1289.64
368.45 1256.97
368.50 1181.54
368.55 1101.30
368.60 1080.63
368.65 1060.00
368.70 989.844
368.75 919.807
368.80 959.563
368.85 1019.82
368.90 1073.73
368.95 1168.46
369.00 1252.71
369.05 1346.08
369.10 1435.15
369.15 1490.00
369.20 1495.46
369.25 1430.54
369.30 1314.29
369.35 1216.72
369.40 1179.41
369.45 1197.99
369.50 1263.08
369.55 1286.85
369.60 1270.08
369.65 1264.39
369.70 1263.80
369.75 1287.05
369.80 1316.73
369.85 1359.64
369.90 1429.20
369.95 1494.16
370.00 1506.54
370.05 1462.77
370.10 1420.21
370.15 1381.81
370.20 1379.83
370.25 1366.36
370.30 1339.37
370.35 1225.97
370.40 1082.17
370.45 1006.92
370.50 963.060
370.55 871.999
370.60 863.894
370.65 941.692
370.70 992.216
370.75 992.033
370.80 979.046
370.85 970.365
370.90 932.431
370.95 921.123
371.00 1059.36
371.05 1190.85
371.10 1268.11
371.15 1297.30
371.20 1333.14
371.25 1383.41
371.30 1468.38
371.35 1510.61
371.40 1580.19
371.45 1593.13
371.50 1528.67
371.55 1449.59
371.60 1372.93
371.65 1389.98
371.70 1424.05
371.75 1424.16
371.80 1331.85
371.85 1170.43
371.90 970.637
371.95 818.653
372.00 651.417
372.05 648.264
372.10 695.679
372.15 710.118
372.20 713.383
372.25 785.171
372.30 889.915
372.35 1073.05
372.40 1149.73
372.45 1250.60
372.50 1301.26
372.55 1400.53
372.60 1411.01
372.65 1245.50
372.70 1065.05
372.75 924.995
372.80 975.346
372.85 1158.85
372.90 1317.96
372.95 1387.12
373.00 1323.65
373.05 1217.42
373.10 1145.96
373.15 1141.25
373.20 1116.89
373.25 1003.81
373.30 868.424
373.35 755.976
373.40 690.420
373.45 574.568
373.50 517.393
373.55 574.218
373.60 615.844
373.65 625.357
373.70 635.474
373.75 675.918
373.80 769.427
373.85 972.011
373.90 1111.91
373.95 1183.38
374.00 1225.83
374.05 1338.69
374.10 1349.74
374.15 1344.04
374.20 1299.83
374.25 1132.80
374.30 977.985
374.35 924.339
374.40 932.142
374.45 935.534
374.50 808.461
374.55 718.701
374.60 700.346
374.65 776.436
374.70 892.084
374.75 835.217
374.80 757.008
374.85 622.621
374.90 525.532
374.95 543.450
375.00 614.344
375.05 818.729
375.10 1027.77
375.15 1168.26
375.20 1240.07
375.25 1252.89
375.30 1253.34
375.35 1287.51
375.40 1364.09
375.45 1439.41
375.50 1526.42
375.55 1554.76
375.60 1525.96
375.65 1447.70
375.70 1234.07
375.75 973.077
375.80 789.326
375.85 742.246
375.90 817.037
375.95 987.653
376.00 1118.99
376.05 1173.19
376.10 1189.12
376.15 1184.84
376.20 1215.16
376.25 1194.64
376.30 1077.67
376.35 978.217
376.40 1002.19
376.45 1109.06
376.50 1211.63
376.55 1246.48
376.60 1163.44
376.65 1023.63
376.70 950.162
376.75 963.239
376.80 1128.87
376.85 1164.89
376.90 1238.57
376.95 1233.83
377.00 1101.81
377.05 1063.05
377.10 1084.00
377.15 1174.90
377.20 1307.22
377.25 1376.02
377.30 1416.82
377.35 1428.65
377.40 1406.98
377.45 1386.40
377.50 1369.81
377.55 1352.37
377.60 1358.62
377.65 1397.26
377.70 1426.01
377.75 1414.18
377.80 1374.63
377.85 1369.51
377.90 1391.36
377.95 1470.71
378.00 1554.73
378.05 1583.12
378.10 1558.91
378.15 1530.76
378.20 1504.85
378.25 1504.60
378.30 1524.58
378.35 1555.57
378.40 1625.42
378.45 1662.77
378.50 1572.99
378.55 1372.44
378.60 1177.69
378.65 1126.33
378.70 1147.91
378.75 1165.10
378.80 1162.42
378.85 1148.22
378.90 1099.47
378.95 1070.20
379.00 1070.45
379.05 1137.19
379.10 1213.36
379.15 1302.36
379.20 1295.79
379.25 1242.19
379.30 1186.18
379.35 1121.70
379.40 1056.33
379.45 1002.93
379.50 982.611
379.55 1008.16
379.60 1087.33
379.65 1103.33
379.70 1041.97
379.75 909.178
379.80 831.215
379.85 812.517
379.90 839.705
379.95 937.641
380.00 1085.29
380.05 1222.00
380.10 1258.38
380.15 1242.43
380.20 1270.53
380.25 1334.12
380.30 1399.19
380.35 1451.68
380.40 1453.06
380.45 1424.41
380.50 1402.73
380.55 1382.84
380.60 1295.88
380.65 1183.97
380.70 1105.63
380.75 1099.33
380.80 1214.16
380.85 1322.64
380.90 1374.65
380.95 1409.41
381.00 1456.93
381.05 1470.86
381.10 1454.25
381.15 1428.05
381.20 1369.23
381.25 1244.68
381.30 1115.38
381.35 1061.16
381.40 1035.84
381.45 1006.41
381.50 930.994
381.55 826.952
381.60 785.192
381.65 892.990
381.70 1034.65
381.75 1155.02
381.80 1217.47
381.85 1201.09
381.90 1105.92
381.95 928.992
382.00 737.926
382.05 621.493
382.10 664.349
382.15 777.459
382.20 962.140
382.25 1129.28
382.30 1123.46
382.35 1081.41
382.40 924.818
382.45 762.202
382.50 692.414
382.55 633.825
382.60 613.229
382.65 656.028
382.70 704.933
382.75 710.425
382.80 704.432
382.85 722.518
382.90 735.527
382.95 745.825
383.00 811.522
383.05 888.030
383.10 864.867
383.15 787.365
383.20 699.819
383.25 601.270
383.30 606.214
383.35 614.361
383.40 614.319
383.45 646.616
383.50 718.152
383.55 809.453
383.60 842.485
383.65 857.300
383.70 823.946
383.75 708.997
383.80 635.098
383.85 591.224
383.90 636.259
383.95 674.730
384.00 680.807
384.05 635.948
384.10 683.806
384.15 861.527
384.20 997.843
384.25 1134.66
384.30 1149.30
384.35 1142.70
384.40 1171.09
384.45 1199.07
384.50 1191.38
384.55 1166.89
384.60 1142.95
384.65 1138.90
384.70 1195.33
384.75 1262.71
384.80 1312.96
384.85 1286.35
384.90 1106.10
384.95 1016.05
385.00 941.920
385.05 929.063
385.10 1044.15
385.15 1216.77
385.20 1295.84
385.25 1278.46
385.30 1208.27
385.35 1133.92
385.40 1093.44
385.45 1074.83
385.50 1068.90
385.55 1014.13
385.60 933.833
385.65 932.148
385.70 1023.33
385.75 1057.44
385.80 994.299
385.85 869.266
385.90 720.722
385.95 625.696
386.00 600.844
386.05 636.344
386.10 784.674
386.15 962.319
386.20 1116.65
386.25 1282.77
386.30 1341.83
386.35 1325.84
386.40 1289.39
386.45 1269.70
386.50 1198.26
386.55 1132.76
386.60 1153.49
386.65 1172.99
386.70 1179.46
386.75 1152.50
386.80 1137.45
386.85 1134.54
386.90 1113.11
386.95 1042.46
387.00 944.293
387.05 885.028
387.10 798.978
387.15 762.171
387.20 766.159
387.25 786.157
387.30 866.364
387.35 1012.20
387.40 1146.40
387.45 1264.74
387.50 1348.66
387.55 1362.52
387.60 1326.54
387.65 1309.49
387.70 1205.03
387.75 1028.52
387.80 846.298
387.85 830.664
387.90 882.544
387.95 1041.85
388.00 1120.07
388.05 1124.34
388.10 1074.26
388.15 974.383
388.20 861.071
388.25 829.385
388.30 897.017
388.35 1092.44
388.40 1270.29
388.45 1287.02
388.50 1192.10
388.55 1015.03
388.60 835.247
388.65 779.014
388.70 856.368
388.75 966.100
388.80 941.086
388.85 898.406
388.90 870.691
388.95 924.690
389.00 1045.46
389.05 1159.56
389.10 1233.92
389.15 1330.35
389.20 1367.22
389.25 1350.01
389.30 1325.02
389.35 1311.18
389.40 1317.35
389.45 1285.42
389.50 1244.76
389.55 1183.22
389.60 1240.05
389.65 1402.39
389.70 1474.83
389.75 1450.63
389.80 1370.63
389.85 1339.70
389.90 1294.00
389.95 1232.82
390.00 1227.40
390.05 1307.25
390.10 1398.49
390.15 1437.17
390.20 1338.71
390.25 1181.22
390.30 1131.01
390.35 1157.64
390.40 1217.16
390.45 1200.78
390.50 1141.18
390.55 1013.61
390.60 1000.73
390.65 1145.05
390.70 1215.58
390.75 1341.95
390.80 1411.99
390.85 1450.15
390.90 1466.54
390.95 1433.84
391.00 1379.88
391.05 1374.74
391.10 1402.92
391.15 1477.17
391.20 1550.26
391.25 1540.18
391.30 1528.63
391.35 1453.75
391.40 1417.17
391.45 1453.72
391.50 1472.36
391.55 1450.55
391.60 1382.77
391.65 1358.60
391.70 1378.26
391.75 1402.45
391.80 1383.75
391.85 1311.17
391.90 1289.03
391.95 1255.15
392.00 1160.35
392.05 1034.69
392.10 1009.04
392.15 1052.84
392.20 1113.81
392.25 1119.91
392.30 1121.74
392.35 1170.99
392.40 1264.76
392.45 1266.72
392.50 1218.60
392.55 1151.57
392.60 1070.76
392.65 1033.38
392.70 982.428
392.75 921.538
392.80 776.372
392.85 698.697
392.90 669.170
392.95 638.458
393.00 587.566
393.05 528.218
393.10 496.003
393.15 468.554
393.20 423.356
393.25 357.663
393.30 304.597
393.35 265.050
393.40 256.560
393.45 293.787
393.50 341.417
393.55 388.542
393.60 444.086
393.65 531.123
393.70 601.057
393.75 632.600
393.80 688.735
393.85 790.646
393.90 878.060
393.95 941.162
394.00 996.636
394.05 1012.70
394.10 1012.34
394.15 1016.17
394.20 1053.57
394.25 1071.16
394.30 1022.14
394.35 946.431
394.40 891.778
394.45 913.988
394.50 1052.68
394.55 1181.80
394.60 1330.67
394.65 1399.51
394.70 1353.82
394.75 1285.47
394.80 1237.63
394.85 1231.33
394.90 1298.28
394.95 1390.59
395.00 1450.83
395.05 1508.16
395.10 1524.20
395.15 1484.22
395.20 1401.48
395.25 1253.77
395.30 1246.61
395.35 1336.93
395.40 1464.83
395.45 1540.61
395.50 1506.17
395.55 1425.87
395.60 1325.52
395.65 1255.45
395.70 1293.86
395.75 1346.46
395.80 1394.07
395.85 1451.76
395.90 1509.23
395.95 1507.63
396.00 1443.78
396.05 1235.85
396.10 995.373
396.15 873.589
396.20 824.845
396.25 851.769
396.30 895.624
396.35 913.402
396.40 906.228
396.45 861.031
396.50 801.278
396.55 717.500
396.60 634.466
396.65 543.754
396.70 449.141
396.75 379.357
396.80 338.970
396.85 299.261
396.90 294.016
396.95 345.813
397.00 424.566
397.05 489.234
397.10 606.327
397.15 681.138
397.20 743.018
397.25 800.987
397.30 858.732
397.35 907.876
397.40 944.943
397.45 1008.06
397.50 1129.59
397.55 1193.53
397.60 1208.59
397.65 1229.72
397.70 1276.03
397.75 1350.25
397.80 1397.67
397.85 1449.39
397.90 1518.14
397.95 1579.23
398.00 1615.59
398.05 1637.96
398.10 1614.97
398.15 1547.23
398.20 1521.68
398.25 1513.10
398.30 1504.67
398.35 1472.42
398.40 1466.87
398.45 1510.97
398.50 1565.13
398.55 1578.37
398.60 1544.83
398.65 1478.48
398.70 1480.25
398.75 1648.46
398.80 1736.31
398.85 1753.95
398.90 1696.01
398.95 1633.56
399.00 1610.64
399.05 1632.15
399.10 1691.82
399.15 1728.81
399.20 1741.03
399.25 1762.66
399.30 1775.35
399.35 1736.69
399.40 1699.58
399.45 1674.49
399.50 1660.61
399.55 1658.43
399.60 1645.54
399.65 1609.80
399.70 1547.39
399.75 1480.20
399.80 1531.23
399.85 1677.94
399.90 1733.60
399.95 1843.20
400.00 1850.01
400.05 1786.21
400.10 1746.80
400.15 1760.53
400.20 1798.48
400.25 1875.14
400.30 1916.51
400.35 1891.75
400.40 1803.91
400.45 1618.87
400.50 1385.63
400.55 1337.50
400.60 1403.16
400.65 1491.71
400.70 1611.24
400.75 1721.43
400.80 1823.80
400.85 1821.08
400.90 1785.73
400.95 1761.93
401.00 1771.12
401.05 1788.65
401.10 1813.59
401.15 1816.34
401.20 1818.29
401.25 1840.21
401.30 1844.80
401.35 1805.03
401.40 1771.34
401.45 1790.38
401.50 1843.11
401.55 1875.48
401.60 1840.12
401.65 1778.77
401.70 1678.39
401.75 1636.20
401.80 1711.85
401.85 1817.81
401.90 1900.93
401.95 1899.10
402.00 1833.28
402.05 1818.10
402.10 1797.10
402.15 1801.58
402.20 1814.54
402.25 1848.78
402.30 1857.50
402.35 1834.51
402.40 1769.51
402.45 1710.97
402.50 1714.39
402.55 1773.25
402.60 1844.86
402.65 1889.35
402.70 1907.20
402.75 1933.62
402.80 1949.40
402.85 1960.95
402.90 1927.74
402.95 1766.75
403.00 1579.20
403.05 1453.65
403.10 1469.43
403.15 1543.84
403.20 1542.36
403.25 1490.62
403.30 1486.19
403.35 1519.81
403.40 1572.23
403.45 1603.98
403.50 1649.75
403.55 1714.56
403.60 1821.94
403.65 1924.86
403.70 1988.04
403.75 2021.26
403.80 2028.17
403.85 2009.58
403.90 1982.74
403.95 1937.20
404.00 1832.89
404.05 1768.55
404.10 1770.59
404.15 1829.57
404.20 1976.60
404.25 2045.53
404.30 1990.17
404.35 1845.69
404.40 1620.89
404.45 1373.35
404.50 1168.95
404.55 1051.19
404.60 1093.36
404.65 1420.78
404.70 1674.80
404.75 1820.54
404.80 1894.76
404.85 1865.45
404.90 1854.25
404.95 1889.21
405.00 1966.38
405.05 2009.16
405.10 1986.49
405.15 1915.59
405.20 1804.33
405.25 1758.59
405.30 1780.06
405.35 1787.76
405.40 1741.94
405.45 1678.46
405.50 1663.48
405.55 1699.36
405.60 1754.12
405.65 1722.97
405.70 1614.71
405.75 1542.80
405.80 1524.85
405.85 1572.82
405.90 1655.57
405.95 1739.36
406.00 1857.22
406.05 1914.32
406.10 1902.64
406.15 1849.89
406.20 1706.44
406.25 1474.43
406.30 1256.95
406.35 1175.52
406.40 1277.64
406.45 1532.51
406.50 1697.94
406.55 1745.54
406.60 1684.77
406.65 1595.49
406.70 1557.15
406.75 1604.30
406.80 1752.74
406.85 1884.79
406.90 1957.89
406.95 1960.80
407.00 1863.08
407.05 1623.68
407.10 1375.54
407.15 1286.19
407.20 1357.65
407.25 1636.53
407.30 1820.83
407.35 1869.62
407.40 1844.80
407.45 1785.93
407.50 1741.93
407.55 1697.53
407.60 1577.93
407.65 1442.78
407.70 1374.47
407.75 1383.99
407.80 1461.66
407.85 1680.75 
407.90 1792.21 
407.95 1884.85 
408.00 1941.11 
408.05 1951.39 
408.10 1902.45 
408.15 1845.49 
408.20 1786.42 
408.25 1701.53 
408.30 1647.96 
408.35 1635.1 
408.40 1640.16 
408.45 1689.69 
408.50 1763.48 
408.55 1830.41 
408.60 1898.65 
408.65 1965.66 
408.70 2012.71 
408.75 2016.92 
408.80 2003.02 
408.85 1974.37 
408.90 1933.35 
408.95 1911.58 
409.00 1902.77 
409.05 1852.13 
409.10 1778.57 
409.15 1779.42 
409.20 1851.93 
409.25 1920.41 
409.30 1911.6 
409.35 1830.22 
409.40 1754.81 
409.45 1672.2 
409.50 1631.74 
409.55 1632.53 
409.60 1643.19 
409.65 1646.83 
409.70 1644.87 
409.75 1637.58 
409.80 1633.39 
409.85 1609.67 
409.90 1498.63 
409.95 1324.27 
410.00 1190.47 
410.05 1104.17 
410.10 1141.05 
410.15 1256.37 
410.20 1357.44 
410.25 1460.54 
410.30 1540.57 
410.35 1633.57 
410.40 1679.45 
410.45 1724.75 
410.50 1762.87 
410.55 1786.37 
410.60 1792.89 
410.65 1787.49 
410.70 1784.44 
410.75 1772.51 
410.80 1758.66 
410.85 1742.36 
410.90 1738.81 
410.95 1746.31 
411.00 1754.35 
411.05 1764.97 
411.10 1782.74 
411.15 1832.63 
411.20 1880.88 
411.25 1922.01 
411.30 1940.11 
411.35 1920.05 
411.40 1934.09 
411.45 1960.38 
411.50 1977.57 
411.55 2004.98 
411.60 2009.53 
411.65 1964.34 
411.70 1860.24 
411.75 1704.98 
411.80 1703.3 
411.85 1745.05 
411.90 1814.28 
411.95 1887.87 
412.00 1892.8 
412.05 1872.66 
412.10 1852.05 
412.15 1823.65 
412.20 1811.46 
412.25 1839.63 
412.30 1885.44 
412.35 1915.19 
412.40 1925.53 
412.45 1887.17 
412.50 1836.19 
412.55 1801.54 
412.60 1773.15 
412.65 1746.7 
412.70 1742.85 
412.75 1771.06 
412.80 1808.44 
412.85 1835.6 
412.90 1854.78 
412.95 1854.37 
413.00 1795.78 
413.05 1670.67 
413.10 1558.38 
413.15 1547.85 
413.20 1586.67 
413.25 1608.45 
413.30 1597.95 
413.35 1659.53 
413.40 1785.81 
413.45 1887.08 
413.50 1943.01 
413.55 1936.09 
413.60 1906.83 
413.65 1904.94 
413.70 1936.6 
413.75 1984.92 
413.80 2015.47 
413.85 2010.45 
413.90 2002.89 
413.95 2001.01 
414.00 1989.66 
414.05 1919.15 
414.10 1807.07 
414.15 1640.29 
414.20 1489.99 
414.25 1428.75 
414.30 1462.55 
414.35 1618.24 
414.40 1759.6 
414.45 1845.6 
414.50 1883.39 
414.55 1895.17 
414.60 1890.21 
414.65 1900 
414.70 1914.56 
414.75 1879.58 
414.80 1785.99 
414.85 1754.02 
414.90 1769.55 
414.95 1816.05 
415.00 1852.18 
415.05 1842.92 
415.10 1835.04 
415.15 1840.13 
415.20 1811.85 
415.25 1708.57 
415.30 1616.73 
415.35 1638.13 
415.40 1717.43 
415.45 1736.23 
415.50 1717.9 
415.55 1684.07 
415.60 1684.12 
415.65 1735.75 
415.70 1769.27 
415.75 1796.12 
415.80 1839.7 
415.85 1889.55 
415.90 1890.24 
415.95 1876.12 
416.00 1885.09 
416.05 1924.62 
416.10 1965.71 
416.15 1994.51 
416.20 2009.64 
416.25 1991.21 
416.30 1968.44 
416.35 1957.93 
416.40 1955.61 
416.45 1949.62 
416.50 1921.63 
416.55 1861.44 
416.60 1759.44 
416.65 1705.14 
416.70 1723.72 
416.75 1808.59 
416.80 1898.74 
416.85 1918.73 
416.90 1910.9 
416.95 1884.83 
417.00 1798.72 
417.05 1660.45 
417.10 1582.08 
417.15 1541.81 
417.20 1530.85 
417.25 1584.84 
417.30 1651.88 
417.35 1686.96 
417.40 1711.7 
417.45 1742 
417.50 1758.08 
417.55 1761.43 
417.60 1721.12 
417.65 1680.18 
417.70 1689.34 
417.75 1720.73 
417.80 1776.61 
417.85 1853.73 
417.90 1885.5 
417.95 1873.34 
418.00 1803.26 
418.05 1684.61 
418.10 1651.27 
418.15 1665.85 
418.20 1686.78 
418.25 1719.31 
418.30 1756.19 
418.35 1812.97 
418.40 1864.45 
418.45 1861.46 
418.50 1801.1 
418.55 1672.47 
418.60 1554.55 
418.65 1514.56 
418.70 1536.74 
418.75 1600.37 
418.80 1723.33 
418.85 1845.75 
418.90 1866.99 
418.95 1848.8 
419.00 1790.7 
419.05 1750.5 
419.10 1790.08 
419.15 1884.67 
419.20 1991.76 
419.25 2042.92 
419.30 2001.28 
419.35 1899.97 
419.40 1784.57 
419.45 1689.7 
419.50 1666.58 
419.55 1699.38 
419.60 1716.85 
419.65 1653.93 
419.70 1549.78 
419.75 1507.59 
419.80 1519.94 
419.85 1595.27 
419.90 1487.6483
419.95 1493.6570
420.00 1505.8767
420.05 1523.1147
420.10 1544.2308
420.15 1568.0042
420.20 1586.1763
420.25 1601.5165
420.30 1618.1726
420.35 1636.3164
420.40 1656.1234
420.45 1677.6967
420.50 1701.2539
420.55 1733.2002
420.60 1771.4374
420.65 1810.0405
420.70 1847.7908
420.75 1883.5776
420.80 1916.2173
420.85 1944.5933
420.90 1961.1956
420.95 1965.4094
421.00 1964.1625
421.05 1957.8412
421.10 1946.8265
421.15 1931.5002
421.20 1912.2582
421.25 1885.2144
421.30 1849.1946
421.35 1812.1714
421.40 1775.7676
421.45 1741.7045
421.50 1711.5750
421.55 1687.0378
421.60 1676.8999
421.65 1691.6675
421.70 1713.1699
421.75 1740.1863
421.80 1771.4828
421.85 1805.8235
421.90 1841.9739
421.95 1880.1610
422.00 1924.0759
422.05 1964.9633
422.10 2000.6509
422.15 2028.8944
422.20 2047.5166
422.25 2054.3506
422.30 2044.0107
422.35 1963.0326
422.40 1871.1106
422.45 1773.0287
422.50 1673.4823
422.55 1577.2285
422.60 1489.0239
422.65 1413.6252
422.70 1414.3696
422.75 1435.8933
422.80 1469.7866
422.85 1513.1718
422.90 1563.1238
422.95 1616.8262
423.00 1671.3212
423.05 1711.2163
423.10 1743.7751
423.15 1771.9080
423.20 1794.7294
423.25 1811.3134
423.30 1820.7009
423.35 1821.9735
423.40 1796.1366
423.45 1750.4055
423.50 1699.4333
423.55 1645.7803
423.60 1592.1577
423.65 1541.0166
423.70 1495.1248
423.75 1470.5620
423.80 1473.2227
423.85 1483.4574
423.90 1500.0892
423.95 1521.9442
424.00 1547.8734
424.05 1576.6963
424.10 1606.2463
424.15 1633.0457
424.20 1659.9348
424.25 1686.2642
424.30 1711.4243
424.35 1734.7852
424.40 1755.7180
424.45 1773.4784
424.50 1784.8474
424.55 1792.2559
424.60 1795.4086
424.65 1794.0029
424.70 1787.7538
424.75 1776.3772
424.80 1759.5620
424.85 1719.5134
424.90 1671.6755
424.95 1622.1156
425.00 1572.9467
425.05 1526.3470
425.10 1484.4944
425.15 1449.5668
425.20 1439.8362
425.25 1450.3228
425.30 1469.2717
425.35 1495.7611
425.40 1528.8904
425.45 1567.6565
425.50 1611.1777
425.55 1664.6351
425.60 1731.1191
425.65 1796.9338
425.70 1859.1230
425.75 1914.9198
425.80 1961.4641
425.85 1995.9148
425.90 2007.6049
425.95 1942.6488
426.00 1865.6611
426.05 1781.6831
426.10 1695.5320
426.15 1612.2621
426.20 1536.7909
426.25 1473.9766
426.30 1494.6121
426.35 1541.9061
426.40 1600.0291
426.45 1665.0452
426.50 1732.9130
426.55 1799.6926
426.60 1861.3997
426.65 1890.6062
426.70 1892.2181
426.75 1884.1194
426.80 1866.9701
426.85 1841.3901
426.90 1808.0596
426.95 1767.6371
427.00 1714.9951
427.05 1643.2517
427.10 1569.2054
427.15 1495.7318
427.20 1425.8041
427.25 1362.1805
427.30 1307.7255
427.35 1265.2777
427.40 1286.0748
427.45 1319.4609
427.50 1362.3140
427.55 1411.9871
427.60 1465.7041
427.65 1520.7952
427.70 1574.5555
427.75 1603.0658
427.80 1617.2294
427.85 1627.8779
427.90 1635.8257
427.95 1641.9016
428.00 1646.9114
428.05 1651.6796
428.10 1662.9810
428.15 1685.7048
428.20 1708.0781
428.25 1729.0629
428.30 1747.6060
428.35 1762.6431
428.40 1773.1375
428.45 1777.7168
428.50 1760.3591
428.55 1737.1215
428.60 1708.7255
428.65 1675.8926
428.70 1639.3993
428.75 1599.8901
428.80 1558.1411
428.85 1508.7061
428.90 1456.1418
428.95 1405.2012
429.00 1357.5791
429.05 1315.0352
429.10 1279.2400
429.15 1251.9579
429.20 1248.4128
429.25 1285.1947
429.30 1329.3347
429.35 1377.7406
429.40 1427.3201
429.45 1474.9478
429.50 1517.5737
429.55 1552.0917
429.60 1534.2983
429.65 1503.9504
429.70 1465.8193
429.75 1421.7844
429.80 1373.6987
429.85 1323.3347
429.90 1272.5679
429.95 1231.4697
430.00 1199.5356
430.05 1170.1571
430.10 1143.5039
430.15 1119.8021
430.20 1099.2325
430.25 1081.9645
430.30 1070.0256
430.35 1072.0032
430.40 1076.2833
430.45 1081.6890
430.50 1087.0496
430.55 1091.1981
430.60 1092.9742
430.65 1091.2039
430.70 1060.7075
430.75 1018.3353
430.80  975.1613
430.85  933.5767
430.90  896.0383
430.95  865.0109
431.00  842.8517
431.05  841.8512
431.10  875.3249
431.15  920.3470
431.20  975.7971
431.25 1040.6838
431.30 1113.9594
431.35 1194.6365
431.40 1281.5488
431.45 1385.0974
431.50 1493.2729
431.55 1601.8948
431.60 1708.4761
431.65 1810.4587
431.70 1905.4404
431.75 1990.8816
431.80 2055.0979
431.85 2093.2078
431.90 2117.8081
431.95 2128.8020
432.00 2126.1189
432.05 2109.6816
432.10 2079.3726
432.15 2035.1421
432.20 1932.2412
432.25 1818.1420
432.30 1699.8158
432.35 1582.2598
432.40 1470.4716
432.45 1369.5184
432.50 1284.3577
432.55 1259.6479
432.60 1299.2383
432.65 1356.2357
432.70 1426.8345
432.75 1507.0251
432.80 1592.9506
432.85 1680.7073
432.90 1766.3296
432.95 1804.2933
433.00 1836.6093
433.05 1864.2426
433.10 1887.8865
433.15 1908.2090
433.20 1925.8665
433.25 1941.5295
433.30 1967.6274
433.35 2004.0364
433.40 2036.6508
433.45 2063.5762
433.50 2082.9092
433.55 2092.7778
433.60 2091.3032
433.65 2076.5859
433.70 1989.8755
433.75 1890.8091
433.80 1785.3036
433.85 1677.6843
433.90 1572.4414
433.95 1474.1259
434.00 1386.9753
434.05 1343.8615
434.10 1353.2114
434.15 1377.0935
434.20 1413.0474
434.25 1458.7449
434.30 1511.7266
434.35 1569.6333
434.40 1630.1194
434.45 1679.2621
434.50 1726.1428
434.55 1770.9281
434.60 1812.6467
434.65 1850.2269
434.70 1882.6088
434.75 1908.7694
434.80 1919.4546
434.85 1907.3672
434.90 1889.3431
434.95 1866.8593
435.00 1841.3599
435.05 1814.3206
435.10 1787.1561
435.15 1761.3418
435.20 1748.3212
435.25 1741.3386
435.30 1737.6536
435.35 1737.3623
435.40 1740.5698
435.45 1747.3704
435.50 1757.8651
435.55 1774.0259
435.60 1801.4185
435.65 1831.5980
435.70 1863.6967
435.75 1896.8027
435.80 1930.0295
435.85 1962.5654
435.90 1993.4520
435.95 2014.4536
436.00 2028.0067
436.05 2039.3286
436.10 2048.8120
436.15 2056.8296
436.20 2063.7744
436.25 2070.0283
436.30 2075.9780
436.35 2092.9619
436.40 2109.2810
436.45 2124.1504
436.50 2136.8020
436.55 2146.4597
436.60 2152.3682
436.65 2153.7593
436.70 2142.9314
436.75 2115.3303
436.80 2083.5681
436.85 2048.7087
436.90 2011.9935
436.95 1974.5098
437.00 1937.4208
437.05 1901.8320
437.10 1878.5345
437.15 1861.4255
437.20 1846.8724
437.25 1834.6418
437.30 1824.5151
437.35 1816.2732
437.40 1809.7007
437.45 1804.1464
437.50 1795.8217
437.55 1789.0088
437.60 1783.9506
437.65 1780.9004
437.70 1780.0936
437.75 1781.7771
437.80 1786.1882
437.85 1806.0503
437.90 1844.1454
437.95 1881.4768
438.00 1915.3179
438.05 1943.0179
438.10 1961.8265
438.15 1969.0999
438.20 1962.1215
438.25 1877.1345
438.30 1759.0829
438.35 1633.2837
438.40 1505.4229
438.45 1380.9841
438.50 1265.6273
438.55 1164.8218
438.60 1091.0203
438.65 1132.6016
438.70 1194.6565
438.75 1272.7471
438.80 1362.5034
438.85 1459.5907
438.90 1559.5258
438.95 1657.8171
439.00 1731.0062
439.05 1763.3069
439.10 1787.9902
439.15 1805.8807
439.20 1817.7968
439.25 1824.5757
439.30 1827.0408
439.35 1826.0171
439.40 1826.6722
439.45 1827.3516
439.50 1825.8975
439.55 1822.4568
439.60 1817.1771
439.65 1810.1996
439.70 1801.6963
439.75 1791.7925
439.80 1779.3335
439.85 1765.7904
439.90 1751.5713
439.95 1736.9915
440.00 1722.3187
440.05 1707.8450
440.10 1693.8495
440.15 1680.6879
440.20 1668.7917
440.25 1658.2333
440.30 1649.2627
440.35 1642.1548
440.40 1637.1782
440.45 1634.5931
440.50 1634.6636
440.55 1638.8999
440.60 1647.8798
440.65 1659.8833
440.70 1674.8768
440.75 1692.8397
440.80 1713.7279
440.85 1737.5452
440.90 1764.2273
440.95 1807.0740
441.00 1858.3228
441.05 1909.0210
441.10 1957.1260
441.15 2000.5927
441.20 2037.3524
441.25 2065.4006
441.30 2082.6895
441.35 2035.3115
441.40 1970.7675
441.45 1900.6118
441.50 1828.6429
441.55 1758.7502
441.60 1694.7777
441.65 1640.7146
441.70 1606.7396
441.75 1662.8134
441.80 1731.8674
441.85 1809.8203
441.90 1892.5634
441.95 1976.1174
442.00 2056.3884
442.05 2129.4141
442.10 2173.4380
442.15 2155.6479
442.20 2126.8008
442.25 2089.4570
442.30 2046.0317
442.35 1999.0425
442.40 1951.0547
442.45 1904.4442
442.50 1876.2664
442.55 1871.3135
442.60 1870.5764
442.65 1873.3192
442.70 1878.8011
442.75 1886.2885
442.80 1895.0466
442.85 1904.3344
442.90 1910.7253
442.95 1914.6659
443.00 1917.6509
443.05 1919.3826
443.10 1919.5706
443.15 1917.9194
443.20 1914.1420
443.25 1907.9504
443.30 1885.4012
443.35 1856.6333
443.40 1827.6858
443.45 1800.0867
443.50 1775.2544
443.55 1754.7085
443.60 1739.9100
443.65 1732.3363
443.70 1771.1501
443.75 1821.3485
443.80 1875.3016
443.85 1930.4080
443.90 1983.9403
443.95 2033.1766
444.00 2075.4497
444.05 2107.8589
444.10 2071.5989
444.15 2025.9563
444.20 1973.8975
444.25 1918.2278
444.30 1861.8588
444.35 1807.5308
444.40 1758.2429
444.45 1722.4675
444.50 1741.0049
444.55 1767.7205
444.60 1800.6824
444.65 1837.8689
444.70 1877.3324
444.75 1917.0736
444.80 1955.1279
444.85 1985.0850
444.90 1992.2679
444.95 1994.4677
445.00 1991.8671
445.05 1984.6396
445.10 1972.9458
445.15 1956.9607
445.20 1936.8894
445.25 1909.4026
445.30 1869.6189
445.35 1827.7216
445.40 1785.1318
445.45 1743.2040
445.50 1703.2864
445.55 1666.6680
445.60 1634.7324
445.65 1616.6670
445.70 1620.0374
445.75 1629.2126
445.80 1643.3813
445.85 1661.7479
445.90 1683.4706
445.95 1707.7310
446.00 1733.7344
446.05 1758.3413
446.10 1779.7612
446.15 1801.2720
446.20 1822.6053
446.25 1843.5100
446.30 1863.7518
446.35 1883.0951
446.40 1901.2577
446.45 1916.7045
446.50 1928.8999
446.55 1939.5863
446.60 1948.7981
446.65 1956.5679
446.70 1962.9257
446.75 1967.9072
446.80 1971.5518
446.85 1971.6844
446.90 1968.0581
446.95 1963.8669
447.00 1959.6093
447.05 1955.7787
447.10 1952.8696
447.15 1951.3779
447.20 1951.7958
447.25 1959.7610
447.30 1976.2629
447.35 1994.5966
447.40 2014.2092
447.45 2034.5360
447.50 2054.9961
447.55 2075.0562
447.60 2094.1064
447.65 2110.2632
447.70 2122.7539
447.75 2132.9922
447.80 2140.7009
447.85 2145.6023
447.90 2147.4192
447.95 2145.8794
448.00 2140.7126
448.05 2124.1953
448.10 2094.1526
448.15 2062.0037
448.20 2029.0815
448.25 1996.7905
448.30 1966.4052
448.35 1939.3032
448.40 1916.8368
448.45 1912.7474
448.50 1934.0785
448.55 1960.0028
448.60 1988.8840
448.65 2019.1698
448.70 2049.1943
448.75 2077.4128
448.80 2102.2344
448.85 2112.6147
448.90 2098.9592
448.95 2080.6067
449.00 2058.5374
449.05 2033.7593
449.10 2007.2211
449.15 1979.9297
449.20 1952.9148
449.25 1929.0557
449.30 1912.3782
449.35 1898.0487
449.40 1886.3940
449.45 1877.7466
449.50 1872.4216
449.55 1870.7446
449.60 1873.0419
449.65 1882.0936
449.70 1905.5483
449.75 1932.5847
449.80 1962.3308
449.85 1994.0046
449.90 2026.7289
449.95 2059.6736
450.00 2092.0393
450.05 2121.9727
450.10 2140.6040
450.15 2157.2153
450.20 2171.9121
450.25 2184.8250
450.30 2196.0613
450.35 2205.7559
450.40 2214.0151
450.45 2220.9453
450.50 2228.8008
450.55 2235.3960
450.60 2240.6328
450.65 2244.4214
450.70 2246.6826
450.75 2247.3386
450.80 2246.3081
450.85 2243.5056
450.90 2234.6714
450.95 2223.6482
451.00 2211.4492
451.05 2198.4155
451.10 2184.9277
451.15 2171.3247
451.20 2157.9988
451.25 2145.2864
451.30 2138.1660
451.35 2133.6812
451.40 2129.8887
451.45 2126.5728
451.50 2123.5127
451.55 2120.4927
451.60 2117.2905
451.65 2113.6941
451.70 2106.8569
451.75 2097.5042
451.80 2087.7524
451.85 2077.7900
451.90 2067.8354
451.95 2058.0664
452.00 2048.6707
452.05 2039.8635
452.10 2035.2839
452.15 2036.3582
452.20 2037.5111
452.25 2038.1780
452.30 2037.7889
452.35 2035.7781
452.40 2031.5789
452.45 2024.6239
452.50 2009.8865
452.55 1976.5472
452.60 1940.8701
452.65 1904.1384
452.70 1867.5537
452.75 1832.2847
452.80 1799.5546
452.85 1770.5067
452.90 1747.1483
452.95 1755.0552
453.00 1767.8379
453.05 1784.3236
453.10 1803.3679
453.15 1823.8358
453.20 1844.5248
453.25 1864.3176
453.30 1882.0515
453.35 1876.4711
453.40 1863.7856
453.45 1849.6498
453.50 1835.0907
453.55 1821.1907
453.60 1808.9866
453.65 1799.5508
453.70 1793.9491
453.75 1807.9368
453.80 1836.8105
453.85 1869.1678
453.90 1903.7930
453.95 1939.5199
454.00 1975.2148
454.05 2009.7191
454.10 2041.8723
454.15 2064.3521
454.20 2071.2356
454.25 2074.4092
454.30 2074.2695
454.35 2071.2183
454.40 2065.6619
454.45 2058.0000
454.50 2048.6428
454.55 2037.7383
454.60 2023.3992
454.65 2008.8413
454.70 1994.7133
454.75 1981.6508
454.80 1970.3079
454.85 1961.3129
454.90 1955.3225
454.95 1952.9838
455.00 1973.2017
455.05 2000.7933
455.10 2030.4003
455.15 2060.6489
455.20 2090.2153
455.25 2117.8025
455.30 2142.0898
455.35 2161.7703
455.40 2157.9238
455.45 2132.9785
455.50 2103.8630
455.55 2072.1604
455.60 2039.4613
455.65 2007.2762
455.70 1977.2191
455.75 1950.8438
455.80 1937.3173
455.85 1955.3186
455.90 1978.0808
455.95 2004.2611
456.00 2032.5481
456.05 2061.6357
456.10 2090.1240
456.15 2116.7349
456.20 2140.1594
456.25 2134.5098
456.30 2122.7876
456.35 2108.3984
456.40 2092.3591
456.45 2075.6943
456.50 2059.4426
456.55 2044.6132
456.60 2032.2195
456.65 2035.9969
456.70 2052.3564
456.75 2071.2444
456.80 2091.7581
456.85 2113.0210
456.90 2134.1973
456.95 2154.3811
457.00 2172.7202
457.05 2184.4136
457.10 2179.9868
457.15 2172.9023
457.20 2163.7437
457.25 2153.1038
457.30 2141.5491
457.35 2129.6809
457.40 2118.0815
457.45 2107.3149
457.50 2111.1748
457.55 2117.9021
457.60 2124.7588
457.65 2131.0063
457.70 2135.9233
457.75 2138.7693
457.80 2138.8228
457.85 2135.3547
457.90 2115.7156
457.95 2079.7427
458.00 2041.1631
458.05 2001.3607
458.10 1961.6522
458.15 1923.4167
458.20 1887.9102
458.25 1856.6190
458.30 1833.2952
458.35 1839.7922
458.40 1852.0175
458.45 1869.1218
458.50 1890.2118
458.55 1914.4346
458.60 1940.9023
458.65 1968.7484
458.70 1997.1790
458.75 2020.6654
458.80 2041.2914
458.85 2060.8096
458.90 2078.9287
458.95 2095.3843
459.00 2109.8545
459.05 2122.0603
459.10 2131.7070
459.15 2135.9680
459.20 2130.2778
459.25 2122.1875
459.30 2112.1968
459.35 2100.8376
459.40 2088.6179
459.45 2076.0422
459.50 2063.6572
459.55 2051.9470
459.60 2049.1436
459.65 2049.0554
459.70 2049.7480
459.75 2050.9414
459.80 2052.3599
459.85 2053.7217
459.90 2054.7520
459.95 2055.1733
460.00 2051.7666
460.05 2042.3964
460.10 2032.5203
460.15 2022.5168
460.20 2012.7795
460.25 2003.7089
460.30 1995.6826
460.35 1989.1072
460.40 1984.3671
460.45 1991.3284
460.50 2001.1968
460.55 2012.3853
460.60 2024.3955
460.65 2036.7196
460.70 2048.8804
460.75 2060.3606
460.80 2070.6743
460.85 2074.8091
460.90 2070.7112
460.95 2065.2522
461.00 2058.8496
461.05 2051.9236
461.10 2044.8978
461.15 2038.1898
461.20 2032.2063
461.25 2027.3735
461.30 2034.9272
461.35 2044.6755
461.40 2054.8967
461.45 2065.0269
461.50 2074.4922
461.55 2082.6902
461.60 2089.0618
461.65 2093.0176
461.70 2086.7480
461.75 2066.2087
461.80 2043.6566
461.85 2020.0676
461.90 1996.3784
461.95 1973.5619
462.00 1952.5330
462.05 1934.2800
462.10 1919.7361
462.15 1929.4968
462.20 1946.5940
462.25 1966.6971
462.30 1988.8840
462.35 2012.1428
462.40 2035.5566
462.45 2058.1924
462.50 2079.0596
462.55 2091.8384
462.60 2089.2913
462.65 2084.0269
462.70 2076.5354
462.75 2067.3140
462.80 2056.8357
462.85 2045.6064
462.90 2034.1160
462.95 2022.8226
463.00 2019.1431
463.05 2018.5092
463.10 2018.2217
463.15 2018.0029
463.20 2017.5757
463.25 2016.6653
463.30 2014.9907
463.35 2012.2813
463.40 2006.1112
463.45 1987.3008
463.50 1967.8965
463.55 1948.7195
463.60 1930.6029
463.65 1914.3622
463.70 1900.7773
463.75 1890.7117
463.80 1884.9524
463.85 1899.0159
463.90 1929.2827
463.95 1962.9568
464.00 1998.7529
464.05 2035.3962
464.10 2071.4863
464.15 2105.7808
464.20 2137.0002
464.25 2163.7676
464.30 2161.8516
464.35 2153.5544
464.40 2140.8105
464.45 2124.2974
464.50 2104.7073
464.55 2082.6836
464.60 2058.9375
464.65 2034.1472
464.70 2010.0972
464.75 1988.7515
464.80 1967.9720
464.85 1948.1372
464.90 1929.6400
464.95 1912.8269
465.00 1898.1038
465.05 1885.8330
465.10 1876.3983
465.15 1876.3871
465.20 1882.4735
465.25 1891.2562
465.30 1902.3871
465.35 1915.4810
465.40 1930.1805
465.45 1946.1194
465.50 1962.9169
465.55 1980.2397
465.60 1997.9514
465.65 2015.4026
465.70 2032.2377
465.75 2048.0410
465.80 2062.4536
465.85 2075.0554
465.90 2085.4951
465.95 2093.3704
466.00 2095.3782
466.05 2088.5303
466.10 2078.9111
466.15 2066.8245
466.20 2052.5669
466.25 2036.4861
466.30 2018.8682
466.35 2000.0043
466.40 1980.2357
466.45 1956.7191
466.50 1931.3632
466.55 1906.6753
466.60 1883.3311
466.65 1862.0297
466.70 1843.4838
466.75 1828.3699
466.80 1817.3853
466.85 1811.2264
466.90 1829.6688
466.95 1854.2308
467.00 1882.4935
467.05 1913.6138
467.10 1946.5476
467.15 1980.4100
467.20 2014.2642
467.25 2047.1462
467.30 2075.9614
467.35 2093.6206
467.40 2108.5552
467.45 2120.6782
467.50 2129.8960
467.55 2136.1372
467.60 2139.3042
467.65 2139.3193
467.70 2136.0947
467.75 2124.5527
467.80 2104.2117
467.85 2081.6157
467.90 2057.5461
467.95 2032.7435
468.00 2007.9670
468.05 1983.9749
468.10 1961.5447
468.15 1941.4116
468.20 1934.7010
468.25 1935.3755
468.30 1938.6458
468.35 1944.1052
468.40 1951.3568
468.45 1960.0004
468.50 1969.6282
468.55 1979.8572
468.60 1990.2620
468.65 1994.7186
468.70 1998.5785
468.75 2002.3690
468.80 2006.1923
468.85 2010.1235
468.90 2014.2566
468.95 2018.6840
469.00 2023.4861
469.05 2029.5780
469.10 2041.2645
469.15 2053.0667
469.20 2064.6182
469.25 2075.5154
469.30 2085.4124
469.35 2093.9177
469.40 2100.6611
469.45 2105.2839
469.50 2104.0620
469.55 2093.4443
469.60 2080.6406
469.65 2066.0295
469.70 2050.0313
469.75 2033.0696
469.80 2015.5403
469.85 1997.8513
469.90 1980.4266
469.95 1966.0262
470.00 1954.8676
470.05 1944.6141
470.10 1935.3447
470.15 1927.0845
470.20 1919.8765
470.25 1913.7642
470.30 1908.7913
470.35 1905.0033
470.40 1903.0111
470.45 1902.5313
470.50 1903.2520
470.55 1905.1493
470.60 1908.1975
470.65 1912.3705
470.70 1917.6522
470.75 1924.0105
470.80 1931.4340
470.85 1944.1224
470.90 1958.5433
470.95 1973.2087
471.00 1987.7014
471.05 2001.5941
471.10 2014.4590
471.15 2025.8588
471.20 2035.3787
471.25 2042.5911
471.30 2033.4814
471.35 2021.2211
471.40 2007.5332
471.45 1993.1377
471.50 1978.7323
471.55 1964.9875
471.60 1952.6219
471.65 1942.3262
471.70 1935.4247
471.75 1948.1960
471.80 1963.7595
471.85 1981.5140
471.90 2000.8403
471.95 2021.1707
472.00 2041.8679
472.05 2062.3672
472.10 2082.0159
472.15 2099.3452
472.20 2108.6753
472.25 2115.9834
472.30 2121.2085
472.35 2124.2803
472.40 2125.1353
472.45 2123.7026
472.50 2119.9199
472.55 2113.7117
472.60 2103.0669
472.65 2082.4580
472.70 2060.0898
472.75 2036.6337
472.80 2012.6982
472.85 1988.9745
472.90 1966.0901
472.95 1944.6942
473.00 1925.4510
473.05 1913.0273
473.10 1915.0254
473.15 1919.6353
473.20 1926.3578
473.25 1934.6743
473.30 1944.0848
473.35 1954.0823
473.40 1964.1516
473.45 1973.7968
473.50 1979.1711
473.55 1975.7123
473.60 1971.3920
473.65 1966.5261
473.70 1961.4280
473.75 1956.4299
473.80 1951.8358
473.85 1947.9724
473.90 1945.1517
473.95 1946.4745
474.00 1954.9575
474.05 1964.6029
474.10 1975.0775
474.15 1986.0643
474.20 1997.2787
474.25 2008.3655
474.30 2019.0300
474.35 2028.9583
474.40 2035.0986
474.45 2034.6619
474.50 2033.3572
474.55 2031.4756
474.60 2029.3109
474.65 2027.1506
474.70 2025.2894
474.75 2024.0165
474.80 2023.6226
474.85 2027.5732
474.90 2039.3391
474.95 2051.9063
475.00 2064.8083
475.05 2077.6460
475.10 2089.9636
475.15 2101.3423
475.20 2111.3486
475.25 2119.5454
475.30 2121.5703
475.35 2111.9448
475.40 2100.5022
475.45 2087.7668
475.50 2074.3047
475.55 2060.6357
475.60 2047.3275
475.65 2034.9218
475.70 2023.9392
475.75 2018.8480
475.80 2027.4524
475.85 2037.7030
475.90 2049.0039
475.95 2060.7539
476.00 2072.3738
476.05 2083.2666
476.10 2092.8628
476.15 2100.5583
476.20 2102.4595
476.25 2087.5459
476.30 2070.4929
476.35 2051.9993
476.40 2032.7512
476.45 2013.3777
476.50 1994.6287
476.55 1977.1345
476.60 1961.6072
476.65 1950.4105
476.70 1955.8104
476.75 1963.9688
476.80 1974.4482
476.85 1986.8275
476.90 2000.6670
476.95 2015.5648
477.00 2031.0687
477.05 2046.7795
477.10 2062.1389
477.15 2071.0078
477.20 2079.2422
477.25 2086.8367
477.30 2093.8086
477.35 2100.1675
477.40 2105.9170
477.45 2111.0728
477.50 2115.6438
477.55 2119.6394
477.60 2123.4736
477.65 2126.7671
477.70 2129.4517
477.75 2131.5027
477.80 2132.8975
477.85 2133.6113
477.90 2133.6230
477.95 2132.9072
478.00 2131.4441
478.05 2128.9966
478.10 2125.7075
478.15 2121.6384
478.20 2116.7773
478.25 2111.1289
478.30 2104.6797
478.35 2097.4443
478.40 2089.3994
478.45 2080.5483
478.50 2068.1558
478.55 2053.4807
478.60 2038.5013
478.65 2023.5447
478.70 2008.9077
478.75 1994.9023
478.80 1981.8398
478.85 1970.0321
478.90 1959.7991
478.95 1954.3816
479.00 1954.4436
479.05 1956.3301
479.10 1959.8862
479.15 1964.9641
479.20 1971.4138
479.25 1979.0852
479.30 1987.8289
479.35 1997.4857
479.40 2008.5844
479.45 2022.0879
479.50 2035.8140
479.55 2049.4722
479.60 2062.7114
479.65 2075.2068
479.70 2086.6558
479.75 2096.7112
479.80 2105.0662
479.85 2110.6663
479.90 2104.7959
479.95 2096.9976
480.00 2087.6606
480.05 2077.1589
480.10 2065.8716
480.15 2054.1882
480.20 2042.4667
480.25 2031.1169
480.30 2020.4769
480.35 2017.3588
480.40 2016.3807
480.45 2016.2772
480.50 2016.8923
480.55 2018.0713
480.60 2019.6597
480.65 2021.5004
480.70 2023.4384
480.75 2025.3246
480.80 2024.4446
480.85 2021.7859
480.90 2019.0808
480.95 2016.4670
481.00 2014.0845
481.05 2012.0667
481.10 2010.5542
481.15 2009.6833
481.20 2009.5896
481.25 2012.0056
481.30 2018.1747
481.35 2025.1106
481.40 2032.6415
481.45 2040.5952
481.50 2048.7925
481.55 2057.0679
481.60 2065.2502
481.65 2073.1606
481.70 2080.4636
481.75 2085.3506
481.80 2089.6116
481.85 2093.2158
481.90 2096.1294
481.95 2098.3269
482.00 2099.7712
482.05 2100.4375
482.10 2100.2910
482.15 2099.3040
482.20 2095.4275
482.25 2090.2759
482.30 2084.5073
482.35 2078.2729
482.40 2071.7129
482.45 2064.9653
482.50 2058.1951
482.55 2051.5278
482.60 2045.1206
482.65 2039.9868
482.70 2036.2445
482.75 2033.0085
482.80 2030.2933
482.85 2028.1260
482.90 2026.5239
482.95 2025.5087
483.00 2025.1008
483.05 2025.3207
483.10 2026.8905
483.15 2032.6350
483.20 2038.7260
483.25 2044.8838
483.30 2050.8455
483.35 2056.3220
483.40 2061.0518
483.45 2064.7649
483.50 2067.1816
483.55 2068.0339
483.60 2059.7529
483.65 2048.2646
483.70 2035.5032
483.75 2021.8329
483.80 2007.5839
483.85 1993.1116
483.90 1978.7299
483.95 1964.8062
484.00 1951.6678
484.05 1942.9989
484.10 1939.5164
484.15 1937.1101
484.20 1935.6200
484.25 1934.8900
484.30 1934.7588
484.35 1935.0674
484.40 1935.6575
484.45 1936.3705
484.50 1936.7341
484.55 1933.2440
484.60 1929.7007
484.65 1926.2196
484.70 1922.9077
484.75 1919.8925
484.80 1917.2811
484.85 1915.1941
484.90 1913.7446
484.95 1913.0459
485.00 1917.3783
485.05 1924.3896
485.10 1931.7904
485.15 1939.2769
485.20 1946.5615
485.25 1953.3291
485.30 1959.2847
485.35 1964.1272
485.40 1967.5552
485.45 1969.1831
485.50 1968.5698
485.55 1965.6693
485.60 1960.2035
485.65 1951.8916
485.70 1940.4678
485.75 1925.6624
485.80 1907.1509
485.85 1884.7236
485.90 1858.0723
485.95 1802.2596
486.00 1738.2509
486.05 1672.7504
486.10 1607.7367
486.15 1544.8241
486.20 1485.7469
486.25 1432.2395
486.30 1386.0359
486.35 1348.9005
486.40 1343.7678
486.45 1385.2539
486.50 1435.7056
486.55 1493.0332
486.60 1555.0887
486.65 1619.7783
486.70 1685.1995
486.75 1749.0300
486.80 1809.3665
486.85 1864.0178
486.90 1866.3177
486.95 1856.9395
487.00 1842.0583
487.05 1822.9011
487.10 1800.7797
487.15 1776.8890
487.20 1752.5013
487.25 1728.8910
487.30 1707.2656
487.35 1699.9307
487.40 1712.0510
487.45 1727.4188
487.50 1745.4763
487.55 1765.7053
487.60 1787.5752
487.65 1810.5337
487.70 1834.0936
487.75 1857.6815
487.80 1880.8115
487.85 1897.2837
487.90 1911.9900
487.95 1925.4338
488.00 1937.4774
488.05 1948.0205
488.10 1956.9492
488.15 1964.1448
488.20 1969.5029
488.25 1972.9109
488.30 1972.8148
488.35 1968.2445
488.40 1961.7411
488.45 1953.4412
488.50 1943.4851
488.55 1932.0129
488.60 1919.1781
488.65 1905.1102
488.70 1889.9496
488.75 1873.8358
488.80 1849.1833
488.85 1822.7924
488.90 1796.9956
488.95 1772.5481
489.00 1750.2056
489.05 1730.7222
489.10 1714.8667
489.15 1703.3806
489.20 1696.9916
489.25 1704.3647
489.30 1739.6619
489.35 1779.8184
489.40 1823.6245
489.45 1869.9633
489.50 1917.5961
489.55 1965.2793
489.60 2011.8618
489.65 2056.1475
489.70 2096.9404
489.75 2114.6594
489.80 2119.0928
489.85 2119.4231
489.90 2116.2271
489.95 2110.0754
490.00 2101.5474
490.05 2091.2085
490.10 2079.6287
490.15 2067.3892
490.20 2056.1201
490.25 2057.8047
490.30 2059.5615
490.35 2061.0664
490.40 2061.9958
490.45 2062.0264
490.50 2060.8352
490.55 2058.1003
490.60 2053.5034
490.65 2046.7126
490.70 2029.0219
490.75 1999.0839
490.80 1967.7274
490.85 1935.8210
490.90 1904.2615
490.95 1873.8574
491.00 1845.5575
491.05 1820.1436
491.10 1798.5095
491.15 1781.5345
491.20 1797.9956
491.25 1825.3015
491.30 1855.8026
491.35 1888.1140
491.40 1920.9116
491.45 1952.8743
491.50 1982.5624
491.55 2008.7131
491.60 2029.9460
491.65 2037.8452
491.70 2001.2279
491.75 1959.0546
491.80 1912.7322
491.85 1863.8652
491.90 1813.9276
491.95 1764.3879
492.00 1716.9001
492.05 1672.8417
492.10 1633.8079
492.15 1618.7439
492.20 1629.4429
492.25 1646.1879
492.30 1668.1917
492.35 1694.5946
492.40 1724.5984
492.45 1757.3860
492.50 1792.1064
492.55 1828.0096
492.60 1864.2117
492.65 1893.8080
492.70 1920.8337
492.75 1946.6143
492.80 1970.8831
492.85 1993.2777
492.90 2013.4891
492.95 2031.2568
493.00 2046.1981
493.05 2058.0354
493.10 2065.6230
493.15 2058.1533
493.20 2047.4648
493.25 2034.0452
493.30 2018.3357
493.35 2000.8330
493.40 1982.0076
493.45 1962.2894
493.50 1942.1819
493.55 1922.1309
493.60 1903.5149
493.65 1887.6736
493.70 1873.0356
493.75 1859.9198
493.80 1848.6011
493.85 1839.3700
493.90 1832.5215
493.95 1828.3324
494.00 1827.1000
494.05 1829.1086
494.10 1843.3846
494.15 1867.3010
494.20 1893.8406
494.25 1922.2583
494.30 1951.9980
494.35 1982.2827
494.40 2012.5051
494.45 2042.0302
494.50 2070.1382
494.55 2096.1948
494.60 2107.6895
494.65 2113.6577
494.70 2117.2705
494.75 2118.7881
494.80 2118.4839
494.85 2116.6213
494.90 2113.4707
494.95 2109.2966
495.00 2104.3650
495.05 2099.0081
495.10 2099.6338
495.15 2099.8987
495.20 2099.6729
495.25 2098.8262
495.30 2097.2280
495.35 2094.7510
495.40 2091.2598
495.45 2086.6365
495.50 2080.7390
495.55 2071.3804
495.60 2052.3169
495.65 2032.3726
495.70 2012.0667
495.75 1991.9167
495.80 1972.4413
495.85 1954.1761
495.90 1937.6335
495.95 1923.2855
496.00 1911.7036
496.05 1910.8840
496.10 1926.3945
496.15 1944.4471
496.20 1964.2830
496.25 1985.1415
496.30 2006.2439
496.35 2026.8521
496.40 2046.2089
496.45 2063.5564
496.50 2078.1384
496.55 2076.2971
496.60 2058.7637
496.65 2038.5521
496.70 2016.4592
496.75 1993.2820
496.80 1969.8396
496.85 1946.9042
496.90 1925.2712
496.95 1905.7344
497.00 1889.1029
497.05 1892.6963
497.10 1908.9795
497.15 1927.8962
497.20 1948.6875
497.25 1970.5398
497.30 1992.6355
497.35 2014.2014
497.40 2034.4431
497.45 2052.5669
497.50 2067.7656
497.55 2065.0828
497.60 2054.0679
497.65 2039.8049
497.70 2022.6641
497.75 2003.0349
497.80 1981.2710
497.85 1957.7407
497.90 1932.8124
497.95 1906.8549
498.00 1880.2622
498.05 1849.5067
498.10 1818.3279
498.15 1788.1406
498.20 1759.5356
498.25 1733.2177
498.30 1709.7847
498.35 1689.9482
498.40 1674.2930
498.45 1663.4886
498.50 1658.1851
498.55 1685.7659
498.60 1721.1351
498.65 1760.4553
498.70 1802.6521
498.75 1846.4937
498.80 1890.9141
498.85 1934.6360
498.90 1976.5995
498.95 2015.6963
499.00 2050.7041
499.05 2052.5359
499.10 2048.5652
499.15 2040.5940
499.20 2029.2688
499.25 2015.2161
499.30 1999.0507
499.35 1981.4534
499.40 1963.0244
499.45 1944.3757
499.50 1926.1733
499.55 1921.2886
499.60 1917.4758
499.65 1914.4794
499.70 1912.1741
499.75 1910.4407
499.80 1909.1531
499.85 1908.1885
499.90 1907.4237
499.95 1906.7357
500.00 1906.0000
500.05 1901.2004
500.10 1896.3485
500.15 1891.5483
500.20 1886.9208
500.25 1882.5747
500.30 1878.6190
500.35 1875.1771
500.40 1872.3529
500.45 1870.2578
500.50 1869.0078
500.55 1875.6611
500.60 1883.0249
500.65 1890.7249
500.70 1898.4584
500.75 1905.9004
500.80 1912.7483
500.85 1918.6855
500.90 1923.4149
500.95 1926.6171
501.00 1927.9877
501.05 1915.6445
501.10 1901.0576
501.15 1885.1475
501.20 1868.3142
501.25 1850.9716
501.30 1833.5339
501.35 1816.4149
501.40 1800.0437
501.45 1784.8158
501.50 1771.1448
501.55 1768.4862
501.60 1768.5746
501.65 1770.3197
501.70 1773.5393
501.75 1778.0525
501.80 1783.6777
501.85 1790.2343
501.90 1797.5327
501.95 1805.3989
502.00 1813.6521
502.05 1820.1122
502.10 1826.3260
502.15 1832.6450
502.20 1839.0364
502.25 1845.4486
502.30 1851.8495
502.35 1858.1929
502.40 1864.4475
502.45 1870.5795
502.50 1876.5325
502.55 1880.8762
502.60 1884.5745
502.65 1888.1844
502.70 1891.7788
502.75 1895.4299
502.80 1899.2109
502.85 1903.1942
502.90 1907.4478
502.95 1912.0482
503.00 1917.0674
503.05 1926.8407
503.10 1939.3358
503.15 1951.8242
503.20 1963.9974
503.25 1975.5013
503.30 1986.0613
503.35 1995.3162
503.40 2002.9696
503.45 2008.7031
503.50 2012.1981
503.55 2005.3389
503.60 1988.4929
503.65 1969.8119
503.70 1949.8555
503.75 1929.2437
503.80 1908.5369
503.85 1888.3340
503.90 1869.1934
503.95 1851.6758
504.00 1836.4089
504.05 1830.7073
504.10 1840.2705
504.15 1852.2655
504.20 1866.1677
504.25 1881.4447
504.30 1897.5642
504.35 1913.9766
504.40 1930.1670
504.45 1945.6194
504.50 1959.7587
504.55 1968.9026
504.60 1961.7029
504.65 1952.8325
504.70 1942.7644
504.75 1931.9780
504.80 1920.9637
504.85 1910.1787
504.90 1900.1221
504.95 1891.2611
505.00 1884.0737
505.05 1879.0378
505.10 1892.0015
505.15 1907.3291
505.20 1924.4561
505.25 1942.9221
505.30 1962.3181
505.35 1982.1985
505.40 2002.1571
505.45 2021.7893
505.50 2040.6130
505.55 2058.2610
505.60 2067.7693
505.65 2073.7173
505.70 2078.0630
505.75 2080.8669
505.80 2082.1895
505.85 2082.0923
505.90 2080.6367
505.95 2077.8853
506.00 2073.8975
506.05 2068.7346
506.10 2061.2930
506.15 2051.8799
506.20 2041.6542
506.25 2030.8208
506.30 2019.5541
506.35 2008.0493
506.40 1996.4788
506.45 1985.0142
506.50 1973.8618
506.55 1963.1938
506.60 1954.4165
506.65 1949.4091
506.70 1945.1201
506.75 1941.5015
506.80 1938.4907
506.85 1936.0332
506.90 1934.0684
506.95 1932.5378
507.00 1931.3872
507.05 1930.5585
507.10 1930.0190
507.15 1931.6844
507.20 1933.3813
507.25 1934.9385
507.30 1936.1838
507.35 1936.9448
507.40 1937.0488
507.45 1936.3256
507.50 1934.6028
507.55 1931.7050
507.60 1927.4707
507.65 1913.8931
507.70 1895.9385
507.75 1877.2107
507.80 1858.1406
507.85 1839.1965
507.90 1820.7876
507.95 1803.3993
508.00 1787.4597
508.05 1773.4164
508.10 1761.7161
508.15 1758.3929
508.20 1766.3970
508.25 1776.9697
508.30 1789.7753
508.35 1804.4730
508.40 1820.7034
508.45 1838.1577
508.50 1856.4414
508.55 1875.2869
508.60 1894.2781
508.65 1912.7813
508.70 1925.4052
508.75 1937.5361
508.80 1949.1692
508.85 1960.2539
508.90 1970.8086
508.95 1980.7959
509.00 1990.2100
509.05 1999.0438
509.10 2007.2556
509.15 2014.8539
509.20 2023.3892
509.25 2031.8601
509.30 2039.4480
509.35 2046.0101
509.40 2051.4043
509.45 2055.4844
509.50 2058.1169
509.55 2059.1541
509.60 2058.4595
509.65 2055.8892
509.70 2047.8806
509.75 2030.6433
509.80 2011.8759
509.85 1992.0707
509.90 1971.6840
509.95 1951.1279
510.00 1930.8975
510.05 1911.4047
510.10 1893.1599
510.15 1876.5583
510.20 1862.0712
510.25 1863.2430
510.30 1867.8721
510.35 1874.4321
510.40 1882.5970
510.45 1892.0198
510.50 1902.3457
510.55 1913.2549
510.60 1924.3716
510.65 1935.3889
510.70 1945.9540
510.75 1950.8857
510.80 1950.0316
510.85 1948.5103
510.90 1946.5210
510.95 1944.2582
511.00 1941.9231
511.05 1939.7089
511.10 1937.8177
511.15 1936.4441
511.20 1935.7854
511.25 1936.4622
511.30 1946.0457
511.35 1956.4446
511.40 1967.3977
511.45 1978.6815
511.50 1989.9910
511.55 2001.1024
511.60 2011.7347
511.65 2021.6326
511.70 2030.5662
511.75 2038.2417
511.80 2041.0437
511.85 2039.8809
511.90 2037.2133
511.95 2033.0889
512.00 2027.5844
512.05 2020.7362
512.10 2012.6484
512.15 2003.3145
512.20 1992.8577
512.25 1981.2977
512.30 1968.1259
512.35 1948.8533
512.40 1928.9722
512.45 1908.9194
512.50 1889.0691
512.55 1869.7344
512.60 1851.3884
512.65 1834.3083
512.70 1818.9231
512.75 1805.6000
512.80 1794.6752
512.85 1795.5979
512.90 1805.4778
512.95 1817.5620
513.00 1831.3855
513.05 1846.5339
513.10 1862.4705
513.15 1878.8173
513.20 1895.0667
513.25 1910.7777
513.30 1925.4932
513.35 1938.0980
513.40 1938.7617
513.45 1937.6786
513.50 1934.9761
513.55 1930.7811
513.60 1925.2314
513.65 1918.4238
513.70 1910.5161
513.75 1901.6221
513.80 1891.8676
513.85 1881.3892
513.90 1869.4877
513.95 1856.3440
514.00 1842.9868
514.05 1829.6152
514.10 1816.4541
514.15 1803.6874
514.20 1791.5540
514.25 1780.2507
514.30 1769.9789
514.35 1760.9799
514.40 1753.4354
514.45 1754.2571
514.50 1757.0702
514.55 1761.2347
514.60 1766.5608
514.65 1772.8877
514.70 1780.0287
514.75 1787.8137
514.80 1796.0776
514.85 1804.6199
514.90 1813.2914
514.95 1820.2576
515.00 1823.8872
515.05 1827.4690
515.10 1831.0648
515.15 1834.7856
515.20 1838.6963
515.25 1842.8892
515.30 1847.4530
515.35 1852.4579
515.40 1858.0081
515.45 1864.1650
515.50 1875.8661
515.55 1889.9988
515.60 1904.3259
515.65 1918.6781
515.70 1932.7074
515.75 1946.1848
515.80 1958.8220
515.85 1970.3221
515.90 1980.4604
515.95 1988.9222
516.00 1995.0994
516.05 1995.1200
516.10 1992.9253
516.15 1988.4550
516.20 1981.6967
516.25 1972.5994
516.30 1961.0951
516.35 1947.2061
516.40 1930.8230
516.45 1911.9512
516.50 1890.5576
516.55 1860.7507
516.60 1820.8970
516.65 1779.2334
516.70 1736.7393
516.75 1693.9183
516.80 1651.4926
516.85 1610.2256
516.90 1570.5819
516.95 1533.4854
517.00 1499.4496
517.05 1469.1616
517.10 1456.1909
517.15 1452.1731
517.20 1452.3700
517.25 1456.5326
517.30 1464.4427
517.35 1475.8177
517.40 1490.4922
517.45 1508.1582
517.50 1528.5842
517.55 1551.6028
517.60 1577.2650
517.65 1617.2295
517.70 1658.2644
517.75 1699.5564
517.80 1740.2510
517.85 1779.2881
517.90 1815.9800
517.95 1849.3474
518.00 1878.4390
518.05 1902.4828
518.10 1920.4863
518.15 1917.8098
518.20 1876.8597
518.25 1830.4104
518.30 1779.7235
518.35 1726.4652
518.40 1671.8687
518.45 1617.6151
518.50 1565.0417
518.55 1515.5488
518.60 1470.7366
518.65 1431.9058
518.70 1428.7922
518.75 1455.6150
518.80 1488.7406
518.85 1526.8726
518.90 1568.9413
518.95 1613.6777
519.00 1659.9939
519.05 1706.6609
519.10 1752.4008
519.15 1796.1810
519.20 1836.7729
519.25 1844.6796
519.30 1840.6742
519.35 1833.3088
519.40 1823.2554
519.45 1811.2142
519.50 1797.8928
519.55 1783.9409
519.60 1770.1239
519.65 1757.0613
519.70 1745.4866
519.75 1736.0853
519.80 1754.3010
519.85 1774.9584
519.90 1797.3604
519.95 1820.7402
520.00 1844.5896
520.05 1868.3049
520.10 1891.1831
520.15 1912.7441
520.20 1932.3145
520.25 1949.3152
520.30 1958.7113
520.35 1943.5780
520.40 1925.5542
520.45 1905.4365
520.50 1883.9183
520.55 1861.6345
520.60 1839.4066
520.65 1817.7987
520.70 1797.6294
520.75 1779.5552
520.80 1764.2645
520.85 1761.6631
520.90 1781.0964
520.95 1803.5193
521.00 1828.2708
521.05 1854.6797
521.10 1881.9329
521.15 1909.5042
521.20 1936.5507
521.25 1962.4336
521.30 1986.4807
521.35 2007.9221
521.40 2014.3628
521.45 2004.2554
521.50 1991.3846
521.55 1976.2972
521.60 1959.6157
521.65 1941.8418
521.70 1923.6221
521.75 1905.4897
521.80 1887.9794
521.85 1871.7684
521.90 1857.3054
521.95 1858.0911
522.00 1870.2048
522.05 1884.0913
522.10 1899.1201
522.15 1914.8612
522.20 1930.7108
522.25 1946.1301
522.30 1960.6287
522.35 1973.5935
522.40 1984.5576
522.45 1992.9458
522.50 1983.5955
522.55 1964.3967
522.60 1942.9199
522.65 1919.6049
522.70 1895.0740
522.75 1869.8533
522.80 1844.4927
522.85 1819.5947
522.90 1795.5771
522.95 1773.1187
523.00 1752.7362
523.05 1745.4916
523.10 1744.4265
523.15 1745.8168
523.20 1749.4969
523.25 1755.3064
523.30 1763.0835
523.35 1772.6556
523.40 1783.8822
523.45 1796.5927
523.50 1810.6099
523.55 1825.7854
523.60 1843.8057
523.65 1863.0679
523.70 1882.7742
523.75 1902.6879
523.80 1922.5103
523.85 1941.9213
523.90 1960.7065
523.95 1978.5492
524.00 1995.1929
524.05 2010.3918
524.10 2023.7898
524.15 2027.4583
524.20 2027.5000
524.25 2025.8176
524.30 2022.6016
524.35 2018.0518
524.40 2012.3584
524.45 2005.7153
524.50 1998.3232
524.55 1990.3508
524.60 1982.0430
524.65 1973.5219
524.70 1968.0684
524.75 1963.3285
524.80 1958.6545
524.85 1954.0649
524.90 1949.5444
524.95 1945.1316
525.00 1940.8149
525.05 1936.6044
525.10 1932.5267
525.15 1928.5686
525.20 1924.7518
525.25 1922.4369
525.30 1920.5515
525.35 1918.6846
525.40 1916.7515
525.45 1914.6829
525.50 1912.4022
525.55 1909.8311
525.60 1906.9072
525.65 1903.5369
525.70 1899.6621
525.75 1895.2020
525.80 1888.7300
525.85 1881.1616
525.90 1872.9299
525.95 1864.0562
526.00 1854.5642
526.05 1844.4467
526.10 1833.7631
526.15 1822.4564
526.20 1810.5874
526.25 1798.1711
526.30 1785.1938
526.35 1767.3054
526.40 1747.0345
526.45 1726.8328
526.50 1706.9633
526.55 1687.7771
526.60 1669.6411
526.65 1652.8059
526.70 1637.6560
526.75 1624.5137
526.80 1613.6680
526.85 1605.5005
526.90 1607.6943
526.95 1617.9170
527.00 1630.7802
527.05 1646.0483
527.10 1663.3544
527.15 1682.5067
527.20 1703.1659
527.25 1725.0706
527.30 1747.9651
527.35 1771.4668
527.40 1795.4226
527.45 1819.5243
527.50 1843.5208
527.55 1867.0718
527.60 1889.8687
527.65 1911.6985
527.70 1932.1825
527.75 1951.0850
527.80 1968.1392
527.85 1982.9941
527.90 1995.4624
527.95 2005.1982
528.00 2006.0145
528.05 1992.3289
528.10 1976.2284
528.15 1958.2151
528.20 1938.9047
528.25 1918.8594
528.30 1898.5947
528.35 1878.7333
528.40 1859.7664
528.45 1842.2733
528.50 1826.8119
528.55 1817.6052
528.60 1828.3423
528.65 1841.6123
528.70 1856.9656
528.75 1873.9614
528.80 1892.1600
528.85 1911.0994
528.90 1930.3608
528.95 1949.5052
529.00 1968.0945
529.05 1985.7069
529.10 2001.8329
529.15 2004.0380
529.20 2004.3821
529.25 2003.1542
529.30 2000.5010
529.35 1996.5892
529.40 1991.5502
529.45 1985.5488
529.50 1978.7307
529.55 1971.2372
529.60 1963.2441
529.65 1954.8765
529.70 1945.8774
529.75 1936.7255
529.80 1927.6929
529.85 1918.9944
529.90 1910.7469
529.95 1903.1719
530.00 1896.4187
530.05 1890.6707
530.10 1886.1160
530.15 1882.8993
530.20 1881.2139
530.25 1886.1278
530.30 1896.7797
530.35 1908.7690
530.40 1921.9485
530.45 1935.9677
530.50 1950.6331
530.55 1965.6772
530.60 1980.8157
530.65 1995.8632
530.70 2010.5189
530.75 2024.5483
530.80 2036.2889
530.85 2043.4965
530.90 2049.6458
530.95 2054.6802
531.00 2058.5945
531.05 2061.3682
531.10 2062.9810
531.15 2063.4146
531.20 2062.6489
531.25 2060.6648
531.30 2057.4380
531.35 2052.9355
531.40 2042.5662
531.45 2031.1415
531.50 2018.8373
531.55 2005.8217
531.60 1992.3799
531.65 1978.6064
531.70 1964.7734
531.75 1951.0481
531.80 1937.5975
531.85 1924.7058
531.90 1912.4692
531.95 1908.6072
532.00 1908.6521
532.05 1909.1346
532.10 1909.7488
532.15 1910.1967
532.20 1910.1737
532.25 1909.3783
532.30 1907.5088
532.35 1904.2720
532.40 1899.3519
532.45 1892.4607
532.50 1875.6392
532.55 1843.7673
532.60 1810.3701
532.65 1776.0302
532.70 1741.4779
532.75 1707.3318
532.80 1674.2456
532.85 1642.9082
532.90 1613.8734
532.95 1587.9236
533.00 1565.6443
533.05 1548.2727
533.10 1564.3020
533.15 1584.5886
533.20 1608.4102
533.25 1635.0292
533.30 1663.7976
533.35 1693.9128
533.40 1724.7684
533.45 1755.6265
533.50 1785.7500
533.55 1814.5017
533.60 1841.1146
533.65 1850.0623
533.70 1847.8798
533.75 1843.2529
533.80 1836.5355
533.85 1828.1379
533.90 1818.3866
533.95 1807.6952
534.00 1796.3997
534.05 1784.8684
534.10 1773.5232
534.15 1762.6697
534.20 1754.8552
534.25 1754.9597
534.30 1756.1786
534.35 1758.4656
534.40 1761.7836
534.45 1766.0834
534.50 1771.3257
534.55 1777.4755
534.60 1784.4603
534.65 1792.2849
534.70 1800.8650
534.75 1810.1746
534.80 1821.4584
534.85 1833.5692
534.90 1846.1957
534.95 1859.1532
535.00 1872.3728
535.05 1885.7260
535.10 1899.0546
535.15 1912.3496
535.20 1925.3945
535.25 1938.1213
535.30 1950.4432
535.35 1961.8809
535.40 1972.1731
535.45 1981.7354
535.50 1990.4949
535.55 1998.4052
535.60 2005.3485
535.65 2011.2910
535.70 2016.1357
535.75 2019.8158
535.80 2022.2585
535.85 2023.3818
535.90 2023.1205
535.95 2016.3241
536.00 2007.5721
536.05 1997.6927
536.10 1986.9080
536.15 1975.3695
536.20 1963.2772
536.25 1950.8309
536.30 1938.1907
536.35 1925.5995
536.40 1913.1580
536.45 1901.1104
536.50 1890.7982
536.55 1883.0063
536.60 1875.9800
536.65 1869.7372
536.70 1864.3564
536.75 1859.8684
536.80 1856.3304
536.85 1853.7968
536.90 1852.3071
536.95 1851.9174
537.00 1852.6766
537.05 1854.6346
537.10 1863.0388
537.15 1873.3733
537.20 1884.5220
537.25 1896.2699
537.30 1908.4343
537.35 1920.7230
537.40 1932.9955
537.45 1944.9598
537.50 1956.4203
537.55 1967.1547
537.60 1976.9297
537.65 1982.9675
537.70 1982.0486
537.75 1980.0027
537.80 1976.9745
537.85 1973.1234
537.90 1968.5869
537.95 1963.5175
538.00 1958.0630
538.05 1952.3726
538.10 1946.6068
538.15 1940.8950
538.20 1935.3916
538.25 1933.7952
538.30 1933.8118
538.35 1934.1039
538.40 1934.6044
538.45 1935.2449
538.50 1935.9574
538.55 1936.6736
538.60 1937.3256
538.65 1937.8459
538.70 1938.1665
538.75 1938.2201
538.80 1937.7339
538.85 1935.6067
538.90 1933.0791
538.95 1930.1522
539.00 1926.8286
539.05 1923.0975
539.10 1918.9746
539.15 1914.4299
539.20 1909.4854
539.25 1904.1288
539.30 1898.3440
539.35 1892.1689
539.40 1884.7893
539.45 1876.3055
539.50 1867.5068
539.55 1858.4263
539.60 1849.1902
539.65 1839.7771
539.70 1830.3252
539.75 1820.8545
539.80 1811.4286
539.85 1802.1533
539.90 1793.0383
539.95 1784.1785
540.00 1775.8721
540.05 1767.9641
540.10 1760.4741
540.15 1753.4364
540.20 1746.9165
540.25 1740.9569
540.30 1735.6016
540.35 1730.9236
540.40 1726.9403
540.45 1723.7234
540.50 1721.3196
540.55 1720.3208
540.60 1722.5125
540.65 1725.5215
540.70 1729.2622
540.75 1733.6560
540.80 1738.6436
540.85 1744.1130
540.90 1750.0320
540.95 1756.2993
541.00 1762.8461
541.05 1769.5970
541.10 1776.4607
541.15 1782.4265
541.20 1787.3969
541.25 1792.3989
541.30 1797.4492
541.35 1802.5356
541.40 1807.6985
541.45 1812.9312
541.50 1818.2509
541.55 1823.6747
541.60 1829.1958
541.65 1834.8435
541.70 1840.6161
541.75 1847.8890
541.80 1855.6755
541.85 1863.4639
541.90 1871.2415
541.95 1878.9060
542.00 1886.3923
542.05 1893.6521
542.10 1900.5938
542.15 1907.1841
542.20 1913.3339
542.25 1918.9788
542.30 1924.0415
542.35 1926.7367
542.40 1928.8177
542.45 1930.2899
542.50 1931.1664
542.55 1931.4608
542.60 1931.1831
542.65 1930.3440
542.70 1928.9540
542.75 1927.0271
542.80 1924.5730
542.85 1921.6063
542.90 1917.2396
542.95 1909.5676
543.00 1901.6049
543.05 1893.5427
543.10 1885.5540
543.15 1877.7841
543.20 1870.4421
543.25 1863.6815
543.30 1857.6625
543.35 1852.5903
543.40 1848.6072
543.45 1845.9028
543.50 1849.3387
543.55 1860.2914
543.60 1872.3503
543.65 1885.2351
543.70 1898.6536
543.75 1912.3138
543.80 1925.9385
543.85 1939.1750
543.90 1951.8079
543.95 1963.5012
544.00 1973.9790
544.05 1982.9595
544.10 1981.4218
544.15 1972.5341
544.20 1962.2675
544.25 1950.9224
544.30 1938.8347
544.35 1926.3718
544.40 1913.7705
544.45 1901.4119
544.50 1889.6177
544.55 1878.6840
544.60 1868.9680
544.65 1860.7479
544.70 1866.4813
544.75 1877.7992
544.80 1890.4227
544.85 1903.9144
544.90 1917.9863
544.95 1932.2273
545.00 1946.2900
545.05 1959.8108
545.10 1972.4130
545.15 1983.7627
545.20 1993.4709
545.25 2001.1902
545.30 1992.1357
545.35 1978.9504
545.40 1963.9594
545.45 1947.5869
545.50 1930.1190
545.55 1911.9143
545.60 1893.3787
545.65 1874.7220
545.70 1856.3704
545.75 1838.6616
545.80 1821.8748
545.85 1806.4612
545.90 1802.6342
545.95 1800.6943
546.00 1800.2009
546.05 1801.0560
546.10 1803.1531
546.15 1806.4058
546.20 1810.6980
546.25 1815.9282
546.30 1822.0176
546.35 1828.8372
546.40 1836.3093
546.45 1844.3889
546.50 1854.6819
546.55 1865.2512
546.60 1875.8817
546.65 1886.4456
546.70 1896.7161
546.75 1906.5409
546.80 1915.7533
546.85 1924.1458
546.90 1931.5796
546.95 1937.8505
547.00 1942.7859
547.05 1945.4055
547.10 1937.3022
547.15 1927.7598
547.20 1917.0847
547.25 1905.4702
547.30 1893.1688
547.35 1880.4349
547.40 1867.4780
547.45 1854.5687
547.50 1841.9299
547.55 1829.7870
547.60 1818.4336
547.65 1808.8342
547.70 1807.7649
547.75 1807.7865
547.80 1808.7968
547.85 1810.6885
547.90 1813.3657
547.95 1816.7246
548.00 1820.6589
548.05 1825.0811
548.10 1829.8633
548.15 1834.9255
548.20 1840.1606
548.25 1845.3270
548.30 1849.0234
548.35 1852.6576
548.40 1856.1967
548.45 1859.6074
548.50 1862.8542
548.55 1865.9058
548.60 1868.7129
548.65 1871.2612
548.70 1873.4999
548.75 1875.4004
548.80 1876.9294
548.85 1877.9077
548.90 1875.8651
548.95 1873.4691
549.00 1870.7900
549.05 1867.9094
549.10 1864.9121
549.15 1861.8622
549.20 1858.8525
549.25 1855.9501
549.30 1853.2363
549.35 1850.7954
549.40 1848.6931
549.45 1847.0151
549.50 1849.6488
549.55 1852.7432
549.60 1856.1674
549.65 1859.8597
549.70 1863.7180
549.75 1867.6688
549.80 1871.6351
549.85 1875.5175
549.90 1879.2615
549.95 1882.7634
550.00 1885.9515
550.05 1888.7473
550.10 1888.0428
550.15 1886.5671
550.20 1884.7190
550.25 1882.5492
550.30 1880.1171
550.35 1877.4856
550.40 1874.6996
550.45 1871.8251
550.50 1868.9192
550.55 1866.0283
550.60 1863.2263
550.65 1860.5527
550.70 1858.7283
550.75 1857.3064
550.80 1856.1268
550.85 1855.2166
550.90 1854.5917
550.95 1854.2792
551.00 1854.2991
551.05 1854.6747
551.10 1855.4260
551.15 1856.5790
551.20 1858.1504
551.25 1860.1653
551.30 1864.4988
551.35 1870.2504
551.40 1876.3480
551.45 1882.6472
551.50 1889.0828
551.55 1895.5530
551.60 1901.9480
551.65 1908.2114
551.70 1914.2113
551.75 1919.8625
551.80 1925.0839
551.85 1929.7693
551.90 1932.5532
551.95 1933.2324
552.00 1933.2625
552.05 1932.6587
552.10 1931.4380
552.15 1929.6157
552.20 1927.2084
552.25 1924.2356
552.30 1920.7061
552.35 1916.6499
552.40 1912.0692
552.45 1906.9843
552.50 1900.7090
552.55 1892.1587
552.60 1883.2937
552.65 1874.2214
552.70 1865.0601
552.75 1855.9272
552.80 1846.9302
552.85 1838.2290
552.90 1829.8882
552.95 1822.0566
553.00 1814.8407
553.05 1808.3511
553.10 1802.9548
553.15 1802.5901
553.20 1803.1282
553.25 1804.5105
553.30 1806.6851
553.35 1809.5854
553.40 1813.1702
553.45 1817.3713
553.50 1822.1312
553.55 1827.4105
553.60 1833.1224
553.65 1839.2439
553.70 1845.6975
553.75 1852.8500
553.80 1860.3350
553.85 1867.9263
553.90 1875.6023
553.95 1883.2396
554.00 1890.7802
554.05 1898.1560
554.10 1905.2556
554.15 1912.0537
554.20 1918.4326
554.25 1924.3324
554.30 1929.6887
554.35 1933.1177
554.40 1934.7507
554.45 1935.7432
554.50 1936.1177
554.55 1935.8943
554.60 1935.0947
554.65 1933.7361
554.70 1931.8413
554.75 1929.4326
554.80 1926.5200
554.85 1923.1416
554.90 1919.2932
554.95 1914.5222
555.00 1907.6238
555.05 1900.4261
555.10 1893.0737
555.15 1885.6208
555.20 1878.2201
555.25 1870.9525
555.30 1863.9346
555.35 1857.2983
555.40 1851.1028
555.45 1845.4871
555.50 1840.5565
555.55 1836.4022
555.60 1838.5730
555.65 1842.2092
555.70 1846.4934
555.75 1851.2952
555.80 1856.4814
555.85 1861.9116
555.90 1867.4653
555.95 1872.9958
556.00 1878.3762
556.05 1883.4800
556.10 1888.1552
556.15 1892.2866
556.20 1892.9325
556.25 1890.3915
556.30 1887.2163
556.35 1883.4940
556.40 1879.2810
556.45 1874.6713
556.50 1869.7236
556.55 1864.5178
556.60 1859.1406
556.65 1853.6337
556.70 1848.1111
556.75 1842.6200
556.80 1837.3506
556.85 1832.9224
556.90 1828.7146
556.95 1824.7769
557.00 1821.1575
557.05 1817.8953
557.10 1815.0378
557.15 1812.6218
557.20 1810.6947
557.25 1809.3007
557.30 1808.4843
557.35 1808.2870
557.40 1808.7532
557.45 1813.5562
557.50 1820.3186
557.55 1827.5569
557.60 1835.0759
557.65 1842.7708
557.70 1850.4634
557.75 1858.0134
557.80 1865.2787
557.85 1872.0837
557.90 1878.2972
557.95 1883.7759
558.00 1888.3569
558.05 1889.6895
558.10 1884.4515
558.15 1878.2372
558.20 1871.2313
558.25 1863.5580
558.30 1855.3738
558.35 1846.8485
558.40 1838.0881
558.45 1829.2725
558.50 1820.5497
558.55 1812.0361
558.60 1803.9299
558.65 1796.3290
558.70 1793.4755
558.75 1792.2054
558.80 1791.5520
558.85 1791.4706
558.90 1791.9159
558.95 1792.8412
559.00 1794.2012
559.05 1795.9540
559.10 1798.0469
559.15 1800.4457
559.20 1803.0933
559.25 1805.9536
559.30 1808.9540
559.35 1812.0132
559.40 1815.1587
559.45 1818.3376
559.50 1821.5081
559.55 1824.6395
559.60 1827.6714
559.65 1830.5844
559.70 1833.3188
559.75 1835.8372
559.80 1838.1064
559.85 1840.0742
559.90 1841.7084
559.95 1839.7605
560.00 1836.6760
560.05 1833.4019
560.10 1830.0643
560.15 1826.7590
560.20 1823.6155
560.25 1820.7341
560.30 1818.2318
560.35 1816.2263
560.40 1814.8191
560.45 1814.1299
560.50 1814.2688
560.55 1817.7332
560.60 1829.6791
560.65 1842.3505
560.70 1855.4530
560.75 1868.7034
560.80 1881.8689
560.85 1894.6205
560.90 1906.7878
560.95 1918.0293
561.00 1928.1238
561.05 1936.7820
561.10 1943.7524
561.15 1948.7761
561.20 1940.8286
561.25 1925.1572
561.30 1907.7703
561.35 1889.0725
561.40 1869.3040
561.45 1848.9404
561.50 1828.2905
561.55 1807.7104
561.60 1787.5803
561.65 1768.2063
561.70 1749.9697
561.75 1733.2458
561.80 1719.0306
561.85 1720.8018
561.90 1724.5605
561.95 1730.0955
562.00 1737.2308
562.05 1745.7675
562.10 1755.4867
562.15 1766.2439
562.20 1777.8081
562.25 1789.9847
562.30 1802.6268
562.35 1815.4800
562.40 1828.3992
562.45 1839.5071
562.50 1847.9346
562.55 1856.0605
562.60 1863.8158
562.65 1871.1904
562.70 1878.1277
562.75 1884.5961
562.80 1890.5717
562.85 1895.9790
562.90 1900.8071
562.95 1905.0105
563.00 1908.5448
563.05 1911.3835
563.10 1911.3921
563.15 1909.9608
563.20 1907.8949
563.25 1905.2577
563.30 1902.1123
563.35 1898.5415
563.40 1894.5902
563.45 1890.3328
563.50 1885.8407
563.55 1881.1689
563.60 1876.4071
563.65 1871.5853
563.70 1866.8237
563.75 1862.8164
563.80 1858.9329
563.85 1855.2263
563.90 1851.7186
563.95 1848.4634
564.00 1845.4955
564.05 1842.8518
564.10 1840.5840
564.15 1838.7172
564.20 1837.2983
564.25 1836.3651
564.30 1835.9569
564.35 1837.4570
564.40 1842.4045
564.45 1847.7769
564.50 1853.4760
564.55 1859.3783
564.60 1865.3519
564.65 1871.3094
564.70 1877.1052
564.75 1882.6440
564.80 1887.8025
564.85 1892.4524
564.90 1896.5051
564.95 1899.8148
565.00 1899.7898
565.05 1896.9675
565.10 1893.3358
565.15 1888.9139
565.20 1883.7748
565.25 1877.9543
565.30 1871.4905
565.35 1864.4554
565.40 1856.8599
565.45 1848.7888
565.50 1840.2585
565.55 1831.3256
565.60 1822.0604
565.65 1810.3066
565.70 1797.7845
565.75 1785.2263
565.80 1772.7793
565.85 1760.6206
565.90 1748.8220
565.95 1737.6052
566.00 1727.0864
566.05 1717.4131
566.10 1708.7416
566.15 1701.1885
566.20 1694.9384
566.25 1690.1116
566.30 1694.6143
566.35 1700.7754
566.40 1708.2383
566.45 1716.8267
566.50 1726.4252
566.55 1736.8778
566.60 1748.0243
566.65 1759.7322
566.70 1771.8719
566.75 1784.2673
566.80 1796.7885
566.85 1809.2739
566.90 1821.2196
566.95 1830.2908
567.00 1839.0404
567.05 1847.4202
567.10 1855.3729
567.15 1862.8926
567.20 1869.9316
567.25 1876.4456
567.30 1882.4202
567.35 1887.7822
567.40 1892.5300
567.45 1896.6067
567.50 1899.9788
567.55 1901.8920
567.60 1901.0203
567.65 1899.4618
567.70 1897.2839
567.75 1894.5479
567.80 1891.3123
567.85 1887.6531
567.90 1883.6152
567.95 1879.2815
568.00 1874.7046
568.05 1869.9358
568.10 1865.0676
568.15 1860.1323
568.20 1855.4746
568.25 1851.3420
568.30 1847.2968
568.35 1843.4014
568.40 1839.6669
568.45 1836.1448
568.50 1832.8667
568.55 1829.8660
568.60 1827.1893
568.65 1824.8599
568.70 1822.9263
568.75 1821.4187
568.80 1820.3719
568.85 1821.2236
568.90 1824.3792
568.95 1827.9369
569.00 1831.8220
569.05 1835.9548
569.10 1840.2468
569.15 1844.6395
569.20 1849.0393
569.25 1853.3723
569.30 1857.5654
569.35 1861.5249
569.40 1865.1874
569.45 1868.4695
569.50 1869.6854
569.55 1868.6775
569.60 1867.2352
569.65 1865.3920
569.70 1863.1985
569.75 1860.6882
569.80 1857.9042
569.85 1854.8970
569.90 1851.6913
569.95 1848.3398
570.00 1844.8806
570.05 1841.3494
570.10 1837.8052
570.15 1834.8485
570.20 1832.5393
570.25 1830.2627
570.30 1828.0156
570.35 1825.8052
570.40 1823.6182
570.45 1821.4648
570.50 1819.3352
570.55 1817.2308
570.60 1815.1555
570.65 1813.0974
570.70 1811.0630
570.75 1809.0487
570.80 1806.3291
570.85 1802.8597
570.90 1799.4812
570.95 1796.2538
571.00 1793.2260
571.05 1790.4463
571.10 1787.9774
571.15 1785.8588
571.20 1784.1533
571.25 1782.9077
571.30 1782.1729
571.35 1782.0028
571.40 1782.4486
571.45 1785.1421
571.50 1790.5833
571.55 1796.6177
571.60 1803.1538
571.65 1810.1313
571.70 1817.4546
571.75 1825.0662
571.80 1832.8685
571.85 1840.7855
571.90 1848.7595
571.95 1856.7040
572.00 1864.5320
572.05 1872.1869
572.10 1878.9438
572.15 1884.2363
572.20 1889.2007
572.25 1893.8167
572.30 1898.0869
572.35 1901.9760
572.40 1905.4807
572.45 1908.5903
572.50 1911.2798
572.55 1913.5486
572.60 1915.3710
572.65 1916.7422
572.70 1917.6409
572.75 1917.5508
572.80 1915.4338
572.85 1912.9008
572.90 1909.9969
572.95 1906.7899
573.00 1903.3383
573.05 1899.6860
573.10 1895.9136
573.15 1892.0547
573.20 1888.1816
573.25 1884.3462
573.30 1880.6011
573.35 1877.0178
573.40 1873.8716
573.45 1872.8477
573.50 1872.0674
573.55 1871.5132
573.60 1871.1708
573.65 1871.0225
573.70 1871.0535
573.75 1871.2474
573.80 1871.5892
573.85 1872.0608
573.90 1872.6506
573.95 1873.3387
574.00 1874.1101
574.05 1874.9517
574.10 1876.6633
574.15 1878.4336
574.20 1880.1663
574.25 1881.8142
574.30 1883.3350
574.35 1884.6777
574.40 1885.8036
574.45 1886.6611
574.50 1887.2085
574.55 1887.3988
574.60 1887.1874
574.65 1886.5272
574.70 1885.3750
574.75 1880.1519
574.80 1873.2593
574.85 1866.0496
574.90 1858.5844
574.95 1851.0287
575.00 1843.4808
575.05 1836.0388
575.10 1828.8760
575.15 1822.0448
575.20 1815.6985
575.25 1809.9519
575.30 1804.9014
575.35 1800.6948
575.40 1801.0022
575.45 1805.5396
575.50 1810.8933
575.55 1816.9452
575.60 1823.5673
575.65 1830.6582
575.70 1838.0911
575.75 1845.7371
575.80 1853.4872
575.85 1861.2231
575.90 1868.8274
575.95 1876.1805
576.00 1883.1566
576.05 1888.4330
576.10 1889.7285
576.15 1890.5029
576.20 1890.7938
576.25 1890.6438
576.30 1890.0918
576.35 1889.1802
576.40 1887.9462
576.45 1886.4331
576.50 1884.6772
576.55 1882.7234
576.60 1880.6088
576.65 1878.3735
576.70 1876.0576
576.75 1874.6033
576.80 1873.1382
576.85 1871.6522
576.90 1870.1503
576.95 1868.6448
577.00 1867.1434
577.05 1865.6494
577.10 1864.1791
577.15 1862.7347
577.20 1861.3286
577.25 1859.9677
577.30 1858.6584
577.35 1857.4139
577.40 1857.1287
577.45 1857.3616
577.50 1857.6052
577.55 1857.8225
577.60 1857.9755
577.65 1858.0272
577.70 1857.9398
577.75 1857.6770
577.80 1857.1995
577.85 1856.4725
577.90 1855.4565
577.95 1854.1166
578.00 1852.4124
578.05 1849.1786
578.10 1843.0359
578.15 1836.5557
578.20 1829.8567
578.25 1823.0247
578.30 1816.1191
578.35 1809.2704
578.40 1802.5198
578.45 1795.9784
578.50 1789.7239
578.55 1783.8412
578.60 1778.4229
578.65 1773.5393
578.70 1769.2845
578.75 1769.7157
578.80 1771.1278
578.85 1773.1410
578.90 1775.7068
578.95 1778.7533
579.00 1782.2329
579.05 1786.0837
579.10 1790.2358
579.15 1794.6526
579.20 1799.2583
579.25 1804.0012
579.30 1808.8284
579.35 1813.6565
579.40 1817.9418
579.45 1821.6433
579.50 1825.2416
579.55 1828.7214
579.60 1832.0313
579.65 1835.1776
579.70 1838.1195
579.75 1840.8330
579.80 1843.3041
579.85 1845.4927
579.90 1847.3900
579.95 1848.9634
580.00 1850.1913
580.05 1850.8530
580.10 1848.6659
580.15 1846.1469
580.20 1843.3762
580.25 1840.4115
580.30 1837.3135
580.35 1834.1582
580.40 1830.9935
580.45 1827.8962
580.50 1824.9261
580.55 1822.1509
580.60 1819.6304
580.65 1817.4265
580.70 1815.6083
580.75 1816.3020
580.80 1818.8306
580.85 1821.7441
580.90 1825.0042
580.95 1828.5559
581.00 1832.3450
581.05 1836.3308
581.10 1840.4480
581.15 1844.6619
581.20 1848.9182
581.25 1853.1663
581.30 1857.3567
581.35 1861.4343
581.40 1865.1877
581.45 1867.0784
581.50 1868.7778
581.55 1870.2993
581.60 1871.6473
581.65 1872.8379
581.70 1873.8788
581.75 1874.7817
581.80 1875.5590
581.85 1876.2166
581.90 1876.7690
581.95 1877.2245
582.00 1877.5951
582.05 1877.8906
582.10 1878.4143
582.15 1879.1101
582.20 1879.7339
582.25 1880.2810
582.30 1880.7444
582.35 1881.1160
582.40 1881.3905
582.45 1881.5601
582.50 1881.6187
582.55 1881.5591
582.60 1881.3754
582.65 1881.0596
582.70 1880.6060
582.75 1880.0078
582.80 1878.3511
582.85 1876.5614
582.90 1874.6581
582.95 1872.6777
583.00 1870.6381
583.05 1868.5593
583.10 1866.4756
583.15 1864.3934
583.20 1862.3469
583.25 1860.3593
583.30 1858.4475
583.35 1856.6404
583.40 1854.9556
583.45 1853.9120
583.50 1853.7913
583.55 1853.8074
583.60 1853.9419
583.65 1854.1790
583.70 1854.4985
583.75 1854.8838
583.80 1855.3174
583.85 1855.7803
583.90 1856.2566
583.95 1856.7261
584.00 1857.1736
584.05 1857.5796
584.10 1857.9261
584.15 1857.7825
584.20 1857.4253
584.25 1856.9873
584.30 1856.4678
584.35 1855.8699
584.40 1855.1907
584.45 1854.4319
584.50 1853.5916
584.55 1852.6708
584.60 1851.6726
584.65 1850.5927
584.70 1849.4326
584.75 1848.1921
584.80 1846.9012
584.85 1845.8184
584.90 1844.6392
584.95 1843.3622
585.00 1841.9755
585.05 1840.4633
585.10 1838.8237
585.15 1837.0380
585.20 1835.1049
585.25 1833.0105
585.30 1830.7407
585.35 1828.2961
585.40 1825.6522
585.45 1822.8101
585.50 1818.8059
585.55 1813.1799
585.60 1807.4438
585.65 1801.6323
585.70 1795.8267
585.75 1790.1010
585.80 1784.5125
585.85 1779.1342
585.90 1774.0110
585.95 1769.2356
586.00 1764.8539
586.05 1760.9380
586.10 1757.5624
586.15 1754.7743
586.20 1755.3225
586.25 1757.8198
586.30 1760.9055
586.35 1764.5013
586.40 1768.5596
586.45 1773.0088
586.50 1777.7928
586.55 1782.8574
586.60 1788.1213
586.65 1793.5511
586.70 1799.0571
586.75 1804.6005
586.80 1810.1127
586.85 1815.5186
586.90 1819.5023
586.95 1823.1812
587.00 1826.6713
587.05 1829.9608
587.10 1833.0176
587.15 1835.8494
587.20 1838.4211
587.25 1840.7250
587.30 1842.7473
587.35 1844.4642
587.40 1845.8699
587.45 1846.9409
587.50 1847.6633
587.55 1847.9204
587.60 1847.0515
587.65 1845.8149
587.70 1844.2260
587.75 1842.2944
587.80 1840.0278
587.85 1837.4470
587.90 1834.5531
587.95 1831.3604
588.00 1827.8848
588.05 1824.1279
588.10 1820.1165
588.15 1815.8394
588.20 1811.3251
588.25 1806.5710
588.30 1801.5791
588.35 1796.3848
588.40 1790.9862
588.45 1785.4089
588.50 1779.6580
588.55 1773.7362
588.60 1767.6805
588.65 1761.4695
588.70 1755.1477
588.75 1748.7109
588.80 1742.1526
588.85 1735.5287
588.90 1728.8062
588.95 1720.5848
589.00 1710.5034
589.05 1700.5239
589.10 1690.7738
589.15 1681.3396
589.20 1672.3500
589.25 1663.9296
589.30 1656.1698
589.35 1649.2146
589.40 1643.1467
589.45 1638.0908
589.50 1634.1604
589.55 1631.4691
589.60 1630.1323
589.65 1635.5819
589.70 1646.8215
589.75 1659.2660
589.80 1672.7803
589.85 1687.1042
589.90 1702.1063
589.95 1717.5796
590.00 1733.3149
590.05 1749.1674
590.10 1764.8851
590.15 1780.3666
590.20 1795.3608
590.25 1809.7019
590.30 1823.2029
590.35 1830.6199
590.40 1833.9584
590.45 1836.3070
590.50 1837.7214
590.55 1838.2688
590.60 1838.0112
590.65 1837.0116
590.70 1835.3324
590.75 1833.0366
590.80 1830.1907
590.85 1826.8544
590.90 1823.0844
590.95 1818.9597
591.00 1814.5261
591.05 1809.8850
591.10 1805.0966
591.15 1800.1824
591.20 1795.2161
591.25 1790.2513
591.30 1785.3352
591.35 1780.5615
591.40 1775.9636
591.45 1771.6083
591.50 1767.5615
591.55 1763.8672
591.60 1760.6104
591.65 1757.8275
591.70 1755.5913
591.75 1757.3794
591.80 1761.3447
591.85 1765.7625
591.90 1770.5615
591.95 1775.6221
592.00 1780.8632
592.05 1786.2053
592.10 1791.5176
592.15 1796.7430
592.20 1801.7593
592.25 1806.4937
592.30 1810.8510
592.35 1814.7148
592.40 1818.0239
592.45 1816.5129
592.50 1812.2300
592.55 1807.4086
592.60 1802.1678
592.65 1796.5848
592.70 1790.7651
592.75 1784.8147
592.80 1778.8069
592.85 1772.8811
592.90 1767.0938
592.95 1761.5676
593.00 1756.3916
593.05 1751.6577
593.10 1747.4875
593.15 1747.2678
593.20 1749.8682
593.25 1753.0378
593.30 1756.7192
593.35 1760.8159
593.40 1765.2871
593.45 1770.0388
593.50 1775.0209
593.55 1780.1580
593.60 1785.3739
593.65 1790.6141
593.70 1795.7953
593.75 1800.8558
593.80 1805.7336
593.85 1809.0634
593.90 1810.9120
593.95 1812.4734
594.00 1813.7607
594.05 1814.7782
594.10 1815.5295
594.15 1816.0251
594.20 1816.2688
594.25 1816.2666
594.30 1816.0248
594.35 1815.5515
594.40 1814.8490
594.45 1813.9272
594.50 1812.7910
594.55 1811.0814
594.60 1808.6302
594.65 1806.0137
594.70 1803.2766
594.75 1800.4521
594.80 1797.5668
594.85 1794.6611
594.90 1791.7616
594.95 1788.9087
595.00 1786.1328
595.05 1783.4633
595.10 1780.9441
595.15 1778.5984
595.20 1776.4631
595.25 1774.9994
595.30 1775.1563
595.35 1775.5569
595.40 1776.1810
595.45 1777.0095
595.50 1778.0214
595.55 1779.1987
595.60 1780.5164
595.65 1781.9578
595.70 1783.5046
595.75 1785.1328
595.80 1786.8275
595.85 1788.5613
595.90 1790.3237
595.95 1792.0515
596.00 1793.0996
596.05 1794.1337
596.10 1795.1542
596.15 1796.1644
596.20 1797.1621
596.25 1798.1508
596.30 1799.1318
596.35 1800.1030
596.40 1801.0691
596.45 1802.0282
596.50 1802.9847
596.55 1803.9377
596.60 1804.8857
596.65 1805.8352
596.70 1807.3611
596.75 1808.9935
596.80 1810.5889
596.85 1812.1272
596.90 1813.5916
596.95 1814.9592
597.00 1816.2142
597.05 1817.3344
597.10 1818.2963
597.15 1819.0886
597.20 1819.6868
597.25 1820.0715
597.30 1820.2245
597.35 1820.1257
597.40 1818.8665
597.45 1816.6702
597.50 1814.2357
597.55 1811.5859
597.60 1808.7588
597.65 1805.7689
597.70 1802.6470
597.75 1799.4238
597.80 1796.1122
597.85 1792.7615
597.90 1789.3748
597.95 1785.9973
598.00 1782.6415
598.05 1779.3333
598.10 1776.2500
598.15 1773.5994
598.20 1771.0697
598.25 1768.6655
598.30 1766.3958
598.35 1764.2822
598.40 1762.3252
598.45 1760.5481
598.50 1758.9548
598.55 1757.5608
598.60 1756.3793
598.65 1755.4194
598.70 1754.6963
598.75 1754.2201
598.80 1754.0037
598.85 1755.5438
598.90 1757.4042
598.95 1759.4686
599.00 1761.7031
599.05 1764.0804
599.10 1766.5564
599.15 1769.1121
599.20 1771.7030
599.25 1774.2993
599.30 1776.8682
599.35 1779.3721
599.40 1781.7852
599.45 1784.0697
599.50 1786.1903
599.55 1787.4717
599.60 1788.1010
599.65 1788.5203
599.70 1788.7264
599.75 1788.7190
599.80 1788.4958
599.85 1788.0564
599.90 1787.3973
599.95 1786.5190
600.00 1785.4193
600.05 1784.0959
600.10 1782.5476
600.15 1780.7725
600.20 1778.7690
600.25 1776.2362
600.30 1772.2561
600.35 1768.1078
600.40 1763.8094
600.45 1759.4222
600.50 1754.9819
600.55 1750.5311
600.60 1746.1182
600.65 1741.7728
600.70 1737.5438
600.75 1733.4790
600.80 1729.6096
600.85 1725.9929
600.90 1722.6514
600.95 1719.6414
601.00 1719.2153
601.05 1719.8008
601.10 1720.6890
601.15 1721.8455
601.20 1723.2244
601.25 1724.7870
601.30 1726.4954
601.35 1728.3010
601.40 1730.1732
601.45 1732.0613
601.50 1733.9321
601.55 1735.7430
601.60 1737.4481
601.65 1739.0166
601.70 1739.6809
601.75 1738.5093
601.80 1737.1611
601.85 1735.6714
601.90 1734.0549
601.95 1732.3496
602.00 1730.5754
602.05 1728.7615
602.10 1726.9402
602.15 1725.1279
602.20 1723.3617
602.25 1721.6614
602.30 1720.0535
602.35 1718.5736
602.40 1717.2380
602.45 1716.7251
602.50 1716.5515
602.55 1716.5647
602.60 1716.7693
602.65 1717.1687
602.70 1717.7670
602.75 1718.5669
602.80 1719.5764
602.85 1720.7915
602.90 1722.2241
602.95 1723.8729
603.00 1725.7434
603.05 1727.8431
603.10 1730.1659
603.15 1733.1396
603.20 1737.4341
603.25 1741.9091
603.30 1746.5376
603.35 1751.2617
603.40 1756.0688
603.45 1760.8998
603.50 1765.7227
603.55 1770.5054
603.60 1775.1821
603.65 1779.7483
603.70 1784.1508
603.75 1788.3456
603.80 1792.3051
603.85 1795.9751
603.90 1797.7510
603.95 1798.5488
604.00 1799.0615
604.05 1799.3125
604.10 1799.3264
604.15 1799.1283
604.20 1798.7434
604.25 1798.1960
604.30 1797.5106
604.35 1796.7141
604.40 1795.8267
604.45 1794.8789
604.50 1793.8914
604.55 1792.8906
604.60 1792.0117
604.65 1792.1443
604.70 1792.3027
604.75 1792.4807
604.80 1792.6727
604.85 1792.8726
604.90 1793.0742
604.95 1793.2715
605.00 1793.4584
605.05 1793.6289
605.10 1793.7769
605.15 1793.8962
605.20 1793.9808
605.25 1794.0251
605.30 1794.0227
605.35 1794.0466
605.40 1794.1011
605.45 1794.0840
605.50 1793.9846
605.55 1793.7915
605.60 1793.4951
605.65 1793.0840
605.70 1792.5477
605.75 1791.8762
605.80 1791.0554
605.85 1790.0815
605.90 1788.9363
605.95 1787.6138
606.00 1786.1021
606.05 1784.3877
606.10 1780.5966
606.15 1776.1277
606.20 1771.5448
606.25 1766.9100
606.30 1762.2664
606.35 1757.6810
606.40 1753.1971
606.45 1748.8832
606.50 1744.7928
606.55 1740.9646
606.60 1737.4755
606.65 1734.3655
606.70 1731.6978
606.75 1729.5204
606.80 1728.2805
606.85 1732.1223
606.90 1736.4885
606.95 1741.2729
607.00 1746.4159
607.05 1751.8379
607.10 1757.4271
607.15 1763.1423
607.20 1768.8877
607.25 1774.5752
607.30 1780.1405
607.35 1785.4800
607.40 1790.5375
607.45 1795.2253
607.50 1799.4626
607.55 1801.5020
607.60 1799.6440
607.65 1797.2758
607.70 1794.4642
607.75 1791.2642
607.80 1787.7284
607.85 1783.9304
607.90 1779.9071
607.95 1775.7386
608.00 1771.4717
608.05 1767.1522
608.10 1762.8682
608.15 1758.6467
608.20 1754.5642
608.25 1750.6719
608.30 1748.5697
608.35 1747.9910
608.40 1747.6553
608.45 1747.5453
608.50 1747.6406
608.55 1747.9232
608.60 1748.3721
608.65 1748.9707
608.70 1749.6981
608.75 1750.5356
608.80 1751.4642
608.85 1752.4636
608.90 1753.5175
608.95 1754.6035
609.00 1755.7046
609.05 1757.0336
609.10 1758.4135
609.15 1759.7401
609.20 1760.9808
609.25 1762.1078
609.30 1763.0974
609.35 1763.9189
609.40 1764.5476
609.45 1764.9539
609.50 1765.1111
609.55 1764.9919
609.60 1764.5701
609.65 1763.8168
609.70 1762.7053
609.75 1761.2103
609.80 1755.8265
609.85 1749.6223
609.90 1743.1531
609.95 1736.4993
610.00 1729.7310
610.05 1722.9478
610.10 1716.2299
610.15 1709.6377
610.20 1703.2703
610.25 1697.1888
610.30 1691.4833
610.35 1686.2476
610.40 1681.5315
610.45 1677.4368
610.50 1674.0374
610.55 1677.1614
610.60 1681.0437
610.65 1685.5559
610.70 1690.6019
610.75 1696.1052
610.80 1702.0007
610.85 1708.1840
610.90 1714.6083
610.95 1721.1771
611.00 1727.8129
611.05 1734.4524
611.10 1740.9888
611.15 1747.3777
611.20 1753.5227
611.25 1759.1488
611.30 1761.3772
611.35 1763.2177
611.40 1764.6943
611.45 1765.8059
611.50 1766.5649
611.55 1766.9812
611.60 1767.0624
611.65 1766.8186
611.70 1766.2585
611.75 1765.3914
611.80 1764.2245
611.85 1762.7732
611.90 1761.0374
611.95 1759.0327
612.00 1756.6377
612.05 1752.8105
612.10 1748.7866
612.15 1744.5916
612.20 1740.2856
612.25 1735.9094
612.30 1731.4937
612.35 1727.1083
612.40 1722.7684
612.45 1718.5400
612.50 1714.4541
612.55 1710.5551
612.60 1706.9003
612.65 1703.5116
612.70 1700.4487
612.75 1698.1143
612.80 1699.4883
612.85 1701.2010
612.90 1703.2085
612.95 1705.4468
613.00 1707.8651
613.05 1710.4138
613.10 1713.0271
613.15 1715.6660
613.20 1718.2634
613.25 1720.7704
613.30 1723.1370
613.35 1725.2986
613.40 1727.2144
613.45 1728.8196
613.50 1729.8036
613.55 1726.4144
613.60 1722.6899
613.65 1718.6619
613.70 1714.4109
613.75 1709.9868
613.80 1705.4442
613.85 1700.8550
613.90 1696.2568
613.95 1691.7250
614.00 1687.3103
614.05 1683.0652
614.10 1679.0681
614.15 1675.3506
614.20 1671.9880
614.25 1669.0322
614.30 1670.6718
614.35 1672.7698
614.40 1675.2324
614.45 1678.0000
614.50 1681.0203
614.55 1684.2498
614.60 1687.6174
614.65 1691.0922
614.70 1694.6042
614.75 1698.1113
614.80 1701.5613
614.85 1704.8887
614.90 1708.0613
614.95 1711.0126
615.00 1713.6924
615.05 1714.3379
615.10 1714.4146
615.15 1714.1616
615.20 1713.5791
615.25 1712.6669
615.30 1711.4211
615.35 1709.8480
615.40 1707.9369
615.45 1705.6962
615.50 1703.1216
615.55 1700.2078
615.60 1696.9672
615.65 1693.3798
615.70 1689.4629
615.75 1685.2085
615.80 1678.5647
615.85 1670.8994
615.90 1663.0037
615.95 1654.9775
616.00 1646.8818
616.05 1638.7883
616.10 1630.7695
616.15 1622.8911
616.20 1615.2430
616.25 1607.8848
616.30 1600.8882
616.35 1594.3304
616.40 1588.2646
616.45 1582.7894
616.50 1577.9661
616.55 1576.2595
616.60 1577.2932
616.65 1579.0168
616.70 1581.3799
616.75 1584.3401
616.80 1587.8591
616.85 1591.8885
616.90 1596.3884
616.95 1601.3232
617.00 1606.6360
617.05 1612.2864
617.10 1618.2354
617.15 1624.4404
617.20 1630.8591
617.25 1637.4580
617.30 1643.9773
617.35 1650.1796
617.40 1656.4452
617.45 1662.7468
617.50 1669.0525
617.55 1675.3542
617.60 1681.5970
617.65 1687.7629
617.70 1693.8344
617.75 1699.7754
617.80 1705.5762
617.85 1711.1797
617.90 1716.5811
617.95 1721.7483
618.00 1726.6511
618.05 1731.1991
618.10 1734.2806
618.15 1737.0634
618.20 1739.5369
618.25 1741.7117
618.30 1743.5955
618.35 1745.1843
618.40 1746.4927
618.45 1747.5179
618.50 1748.2676
618.55 1748.7466
618.60 1748.9583
618.65 1748.9076
618.70 1748.5991
618.75 1748.0381
618.80 1747.2279
618.85 1745.3413
618.90 1742.9714
618.95 1740.4172
619.00 1737.7123
619.05 1734.8851
619.10 1731.9764
619.15 1729.0059
619.20 1726.0168
619.25 1723.0375
619.30 1720.0956
619.35 1717.2391
619.40 1714.4789
619.45 1711.8638
619.50 1709.4219
619.55 1707.1786
619.60 1705.9075
619.65 1705.8665
619.70 1706.0637
619.75 1706.4873
619.80 1707.1277
619.85 1707.9692
619.90 1709.0063
619.95 1710.2231
620.00 1711.6101
620.05 1713.1567
620.10 1714.8459
620.15 1716.6761
620.20 1718.6283
620.25 1720.6942
620.30 1722.8638
620.35 1725.1654
620.40 1728.4442
620.45 1731.7612
620.50 1735.0863
620.55 1738.3871
620.60 1741.6160
620.65 1744.7577
620.70 1747.7606
620.75 1750.5994
620.80 1753.2377
620.85 1755.6323
620.90 1757.7627
620.95 1759.5830
621.00 1761.0614
621.05 1762.1660
621.10 1762.8573
621.15 1760.6952
621.20 1756.7621
621.25 1752.4673
621.30 1747.8704
621.35 1743.0487
621.40 1738.0378
621.45 1732.9119
621.50 1727.7314
621.55 1722.5449
621.60 1717.4353
621.65 1712.4348
621.70 1707.6195
621.75 1703.0488
621.80 1698.7715
621.85 1694.8671
621.90 1692.3049
621.95 1694.1719
622.00 1696.4299
622.05 1699.0209
622.10 1701.8662
622.15 1704.9250
622.20 1708.1150
622.25 1711.3804
622.30 1714.6625
622.35 1717.8833
622.40 1720.9968
622.45 1723.9281
622.50 1726.6187
622.55 1729.0090
622.60 1731.0244
622.65 1732.6174
622.70 1730.3938
622.75 1726.2773
622.80 1721.7411
622.85 1716.8540
622.90 1711.6504
622.95 1706.2040
623.00 1700.5629
623.05 1694.7737
623.10 1688.9224
623.15 1683.0199
623.20 1677.1575
623.25 1671.3809
623.30 1665.7280
623.35 1660.2881
623.40 1655.0751
623.45 1650.6990
623.50 1649.1600
623.55 1647.9424
623.60 1647.0326
623.65 1646.4037
623.70 1646.0400
623.75 1645.9198
623.80 1646.0242
623.85 1646.3318
623.90 1646.8245
623.95 1647.4803
624.00 1648.2797
624.05 1649.2056
624.10 1650.2322
624.15 1651.3462
624.20 1652.5233
624.25 1653.7771
624.30 1655.0786
624.35 1656.3784
624.40 1657.6639
624.45 1658.9081
624.50 1660.0927
624.55 1661.1967
624.60 1662.1957
624.65 1663.0741
624.70 1663.8070
624.75 1664.3745
624.80 1664.7562
624.85 1664.9294
624.90 1664.8754
624.95 1664.5726
625.00 1663.9973
625.05 1660.0912
625.10 1655.9612
625.15 1651.6353
625.20 1647.1913
625.25 1642.6688
625.30 1638.1218
625.35 1633.6219
625.40 1629.1953
625.45 1624.9189
625.50 1620.8342
625.55 1616.9945
625.60 1613.4673
625.65 1610.2876
625.70 1607.5193
625.75 1605.2148
625.80 1604.9426
625.85 1607.9453
625.90 1611.4346
625.95 1615.3462
626.00 1619.6367
626.05 1624.2600
626.10 1629.1533
626.15 1634.2861
626.20 1639.5839
626.25 1645.0117
626.30 1650.5111
626.35 1656.0315
626.40 1661.5303
626.45 1666.9579
626.50 1672.2551
626.55 1677.3716
626.60 1680.6067
626.65 1682.8011
626.70 1684.7670
626.75 1686.5178
626.80 1688.0581
626.85 1689.3998
626.90 1690.5522
626.95 1691.5264
627.00 1692.3298
627.05 1692.9745
627.10 1693.4673
627.15 1693.8192
627.20 1694.0398
627.25 1694.1387
627.30 1694.1249
627.35 1694.0085
627.40 1693.4886
627.45 1692.8762
627.50 1692.2050
627.55 1691.4912
627.60 1690.7556
627.65 1690.0116
627.70 1689.2798
627.75 1688.5760
627.80 1687.9169
627.85 1687.3223
627.90 1686.8066
627.95 1686.3895
628.00 1686.0868
628.05 1685.9159
628.10 1685.8949
628.15 1686.3755
628.20 1688.4868
628.25 1690.7485
628.30 1693.1353
628.35 1695.6146
628.40 1698.1719
628.45 1700.7710
628.50 1703.3905
628.55 1706.0082
628.60 1708.5845
628.65 1711.1116
628.70 1713.5513
628.75 1715.8822
628.80 1718.0818
628.85 1720.1128
628.90 1721.9657
628.95 1723.1328
629.00 1723.3230
629.05 1723.2903
629.10 1723.0386
629.15 1722.5708
629.20 1721.8923
629.25 1721.0057
629.30 1719.9124
629.35 1718.6223
629.40 1717.1296
629.45 1715.4463
629.50 1713.5742
629.55 1711.5105
629.60 1709.2720
629.65 1706.8467
629.70 1704.2490
629.75 1700.6721
629.80 1696.2588
629.85 1691.7446
629.90 1687.1489
629.95 1682.5278
630.00 1677.9130
630.05 1673.3403
630.10 1668.8665
630.15 1664.5013
630.20 1660.3060
630.25 1656.3115
630.30 1652.5542
630.35 1649.0842
630.40 1645.9238
630.45 1643.1249
630.50 1640.7222
630.55 1641.6667
630.60 1644.5101
630.65 1647.7000
630.70 1651.1556
630.75 1654.8158
630.80 1658.6176
630.85 1662.4795
630.90 1666.3602
630.95 1670.1758
631.00 1673.8661
631.05 1677.3679
631.10 1680.6052
631.15 1683.5249
631.20 1686.0541
631.25 1688.1299
631.30 1689.6870
631.35 1685.7734
631.40 1679.5803
631.45 1672.9487
631.50 1665.9646
631.55 1658.7133
631.60 1651.3086
631.65 1643.8132
631.70 1636.3347
631.75 1628.9579
631.80 1621.7686
631.85 1614.8842
631.90 1608.3523
631.95 1602.2949
632.00 1596.7922
632.05 1591.9314
632.10 1587.8186
632.15 1590.7573
632.20 1596.2754
632.25 1602.4578
632.30 1609.2266
632.35 1616.4397
632.40 1624.0477
632.45 1631.9120
632.50 1639.9575
632.55 1648.0857
632.60 1656.1729
632.65 1664.1521
632.70 1671.9058
632.75 1679.3422
632.80 1686.3680
632.85 1692.8596
632.90 1698.7590
632.95 1698.3876
633.00 1695.7080
633.05 1692.4154
633.10 1688.5938
633.15 1684.2983
633.20 1679.6086
633.25 1674.5912
633.30 1669.3118
633.35 1663.8612
633.40 1658.2751
633.45 1652.6497
633.50 1647.0493
633.55 1641.5315
633.60 1636.1868
633.65 1631.0635
633.70 1626.2437
633.75 1624.7158
633.80 1624.6439
633.85 1624.9175
633.90 1625.5145
633.95 1626.4089
634.00 1627.5769
634.05 1628.9966
634.10 1630.6394
634.15 1632.4873
634.20 1634.5127
634.25 1636.6908
634.30 1639.0054
634.35 1641.4182
634.40 1643.9222
634.45 1646.4800
634.50 1649.0756
634.55 1651.6389
634.60 1654.1581
634.65 1656.6527
634.70 1659.0892
634.75 1661.4476
634.80 1663.7112
634.85 1665.8496
634.90 1667.8489
634.95 1669.6825
635.00 1671.3303
635.05 1672.7714
635.10 1673.9785
635.15 1674.9380
635.20 1675.6219
635.25 1676.0115
635.30 1676.0842
635.35 1674.2485
635.40 1670.6322
635.45 1666.7455
635.50 1662.6328
635.55 1658.3364
635.60 1653.9105
635.65 1649.3955
635.70 1644.8464
635.75 1640.3069
635.80 1635.8285
635.85 1631.4550
635.90 1627.2333
635.95 1623.2056
636.00 1619.4348
636.05 1615.9580
636.10 1612.8207
636.15 1611.2483
636.20 1612.2225
636.25 1613.5806
636.30 1615.2878
636.35 1617.3186
636.40 1619.6444
636.45 1622.2371
636.50 1625.0649
636.55 1628.1079
636.60 1631.3270
636.65 1634.6985
636.70 1638.1946
636.75 1641.7861
636.80 1645.4485
636.85 1649.1439
636.90 1652.8501
636.95 1656.4393
637.00 1659.4055
637.05 1662.3197
637.10 1665.1582
637.15 1667.9189
637.20 1670.5824
637.25 1673.1379
637.30 1675.5750
637.35 1677.8710
637.40 1680.0282
637.45 1682.0227
637.50 1683.8442
637.55 1685.4856
637.60 1686.9232
637.65 1688.1553
637.70 1689.1624
637.75 1689.9344
637.80 1689.2483
637.85 1688.1919
637.90 1686.9189
637.95 1685.4495
638.00 1683.8005
638.05 1681.9883
638.10 1680.0386
638.15 1677.9573
638.20 1675.7708
638.25 1673.4941
638.30 1671.1436
638.35 1668.7458
638.40 1666.3042
638.45 1663.8472
638.50 1661.3894
638.55 1658.9460
638.60 1657.2880
638.65 1656.1405
638.70 1655.0208
638.75 1653.9160
638.80 1652.8163
638.85 1651.7156
638.90 1650.5972
638.95 1649.4565
639.00 1648.2822
639.05 1647.0630
639.10 1645.7942
639.15 1644.4575
639.20 1643.0502
639.25 1641.5594
639.30 1639.9744
639.35 1638.2904
639.40 1636.0325
639.45 1632.4646
639.50 1628.8119
639.55 1625.0990
639.60 1621.3656
639.65 1617.6206
639.70 1613.9070
639.75 1610.2483
639.80 1606.6606
639.85 1603.1942
639.90 1599.8513
639.95 1596.6750
640.00 1593.6875
640.05 1590.9141
640.10 1588.3900
640.15 1586.1307
640.20 1584.1727
640.25 1584.6810
640.30 1585.7246
640.35 1587.0433
640.40 1588.6172
640.45 1590.4149
640.50 1592.4111
640.55 1594.5872
640.60 1596.9026
640.65 1599.3481
640.70 1601.8871
640.75 1604.4968
640.80 1607.1565
640.85 1609.8250
640.90 1612.4961
640.95 1615.1311
641.00 1617.7089
641.05 1619.4248
641.10 1620.2255
641.15 1620.9471
641.20 1621.5961
641.25 1622.1835
641.30 1622.7200
641.35 1623.2124
641.40 1623.6752
641.45 1624.1146
641.50 1624.5420
641.55 1624.9675
641.60 1625.3994
641.65 1625.8495
641.70 1626.3267
641.75 1626.8407
641.80 1627.4023
641.85 1628.0569
641.90 1630.0422
641.95 1632.0730
642.00 1634.1296
642.05 1636.1968
642.10 1638.2488
642.15 1640.2766
642.20 1642.2529
642.25 1644.1621
642.30 1645.9888
642.35 1647.7046
642.40 1649.3007
642.45 1650.7520
642.50 1652.0417
642.55 1653.1531
642.60 1654.0623
642.65 1654.7554
642.70 1654.2334
642.75 1652.6121
642.80 1650.7753
642.85 1648.7544
642.90 1646.5599
642.95 1644.2224
643.00 1641.7578
643.05 1639.1895
643.10 1636.5461
643.15 1633.8339
643.20 1631.0901
643.25 1628.3291
643.30 1625.5687
643.35 1622.8436
643.40 1620.1600
643.45 1617.5483
643.50 1615.0300
643.55 1613.8313
643.60 1612.7578
643.65 1611.7832
643.70 1610.9082
643.75 1610.1245
643.80 1609.4272
643.85 1608.8127
643.90 1608.2723
643.95 1607.8037
644.00 1607.4003
644.05 1607.0570
644.10 1606.7690
644.15 1606.5300
644.20 1606.3354
644.25 1606.1804
644.30 1606.0585
644.35 1605.8368
644.40 1605.4487
644.45 1605.0884
644.50 1604.7585
644.55 1604.4592
644.60 1604.1941
644.65 1603.9626
644.70 1603.7683
644.75 1603.6121
644.80 1603.4956
644.85 1603.4213
644.90 1603.3899
644.95 1603.4037
645.00 1603.4646
645.05 1603.5737
645.10 1603.7334
645.15 1603.9453
645.20 1604.6599
645.25 1605.5497
645.30 1606.4745
645.35 1607.4232
645.40 1608.3848
645.45 1609.3508
645.50 1610.3059
645.55 1611.2424
645.60 1612.1483
645.65 1613.0137
645.70 1613.8271
645.75 1614.5795
645.80 1615.2568
645.85 1615.8514
645.90 1616.3508
645.95 1616.7446
646.00 1616.8909
646.05 1615.7593
646.10 1614.5220
646.15 1613.1960
646.20 1611.7968
646.25 1610.3433
646.30 1608.8474
646.35 1607.3330
646.40 1605.8135
646.45 1604.3060
646.50 1602.8271
646.55 1601.3929
646.60 1600.0248
646.65 1598.7341
646.70 1597.5404
646.75 1596.4600
646.80 1595.5082
646.85 1595.3054
646.90 1596.1957
646.95 1597.2191
647.00 1598.3608
647.05 1599.6067
647.10 1600.9330
647.15 1602.3334
647.20 1603.7847
647.25 1605.2732
647.30 1606.7856
647.35 1608.2981
647.40 1609.8027
647.45 1611.2778
647.50 1612.7097
647.55 1614.0829
647.60 1615.3772
647.65 1616.5834
647.70 1617.1030
647.75 1617.1757
647.80 1617.1394
647.85 1616.9994
647.90 1616.7573
647.95 1616.4182
648.00 1615.9843
648.05 1615.4592
648.10 1614.8477
648.15 1614.1506
648.20 1613.3733
648.25 1612.5190
648.30 1611.5894
648.35 1610.5923
648.40 1609.5254
648.45 1608.3964
648.50 1607.2070
648.55 1605.9668
648.60 1604.6782
648.65 1603.3350
648.70 1601.9471
648.75 1600.5151
648.80 1599.0396
648.85 1597.5308
648.90 1595.9814
648.95 1594.4047
649.00 1592.7981
649.05 1591.1644
649.10 1589.5137
649.15 1587.8397
649.20 1586.1511
649.25 1584.4507
649.30 1582.7378
649.35 1581.0242
649.40 1578.5038
649.45 1575.9921
649.50 1573.5199
649.55 1571.1003
649.60 1568.7651
649.65 1566.5198
649.70 1564.3953
649.75 1562.4100
649.80 1560.5789
649.85 1558.9294
649.90 1557.4741
649.95 1556.2397
650.00 1555.2421
650.05 1554.5017
650.10 1554.0408
650.15 1553.8765
650.20 1554.3169
650.25 1557.6924
650.30 1561.3617
650.35 1565.2717
650.40 1569.3973
650.45 1573.6879
650.50 1578.1067
650.55 1582.6161
650.60 1587.1610
650.65 1591.7230
650.70 1596.2432
650.75 1600.6880
650.80 1605.0204
650.85 1609.1864
650.90 1613.1660
650.95 1616.9021
651.00 1620.3604
651.05 1622.9257
651.10 1622.2875
651.15 1621.3333
651.20 1620.0972
651.25 1618.6097
651.30 1616.9004
651.35 1615.0067
651.40 1612.9507
651.45 1610.7719
651.50 1608.4985
651.55 1606.1572
651.60 1603.7917
651.65 1601.4189
651.70 1599.0808
651.75 1596.8016
651.80 1594.6151
651.85 1592.5575
651.90 1591.1062
651.95 1591.7646
652.00 1592.5804
652.05 1593.5370
652.10 1594.6112
652.15 1595.7900
652.20 1597.0503
652.25 1598.3772
652.30 1599.7518
652.35 1601.1503
652.40 1602.5619
652.45 1603.9633
652.50 1605.3369
652.55 1606.6670
652.60 1607.9290
652.65 1609.1128
652.70 1610.1929
652.75 1610.9102
652.80 1610.3041
652.85 1609.5790
652.90 1608.7427
652.95 1607.8088
653.00 1606.7889
653.05 1605.6914
653.10 1604.5326
653.15 1603.3174
653.20 1602.0635
653.25 1600.7781
653.30 1599.4725
653.35 1598.1633
653.40 1596.8529
653.45 1595.5591
653.50 1594.2910
653.55 1593.0590
653.60 1591.9818
653.65 1591.8396
653.70 1591.7454
653.75 1591.6907
653.80 1591.6659
653.85 1591.6625
653.90 1591.6711
653.95 1591.6830
654.00 1591.6890
654.05 1591.6802
654.10 1591.6479
654.15 1591.5825
654.20 1591.4755
654.25 1591.3179
654.30 1591.1005
654.35 1590.8152
654.40 1590.4517
654.45 1590.0022
654.50 1590.9727
654.55 1591.8143
654.60 1592.4802
654.65 1592.9316
654.70 1593.1263
654.75 1593.0258
654.80 1592.5898
654.85 1591.7793
654.90 1590.5507
654.95 1588.8696
655.00 1586.6942
655.05 1583.9843
655.10 1580.6995
655.15 1576.8005
655.20 1572.2430
655.25 1566.9995
655.30 1561.0232
655.35 1547.5710
655.40 1532.1682
655.45 1516.2260
655.50 1499.8259
655.55 1483.1453
655.60 1466.2795
655.65 1449.3506
655.70 1432.4808
655.75 1415.8071
655.80 1399.4092
655.85 1383.4651
655.90 1368.0686
655.95 1353.3416
656.00 1339.4177
656.05 1326.3850
656.10 1314.3993
656.15 1303.5801
656.20 1300.4467
656.25 1302.1777
656.30 1305.1005
656.35 1309.1213
656.40 1314.1750
656.45 1320.1698
656.50 1327.0288
656.55 1334.6781
656.60 1343.0094
656.65 1351.9845
656.70 1361.4856
656.75 1371.4468
656.80 1381.7972
656.85 1392.4203
656.90 1403.2894
656.95 1414.2788
657.00 1425.3265
657.05 1435.0122
657.10 1442.5463
657.15 1450.0132
657.20 1457.3690
657.25 1464.6150
657.30 1471.7513
657.35 1478.7312
657.40 1485.5834
657.45 1492.2683
657.50 1498.7856
657.55 1505.1340
657.60 1511.2709
657.65 1517.2206
657.70 1522.9510
657.75 1528.4515
657.80 1533.7197
657.85 1538.7307
657.90 1543.4451
657.95 1547.5039
658.00 1551.2925
658.05 1554.8070
658.10 1558.0308
658.15 1560.9803
658.20 1563.6416
658.25 1566.0126
658.30 1568.0955
658.35 1569.8793
658.40 1571.3682
658.45 1572.5554
658.50 1573.4387
658.55 1574.0165
658.60 1574.2839
658.65 1574.2395
658.70 1573.8796
658.75 1573.2017
658.80 1570.2598
658.85 1566.4598
658.90 1562.4149
658.95 1558.1825
659.00 1553.8064
659.05 1549.3296
659.10 1544.8153
659.15 1540.2866
659.20 1535.8104
659.25 1531.4260
659.30 1527.1765
659.35 1523.1233
659.40 1519.2925
659.45 1515.7476
659.50 1512.5288
659.55 1509.6807
659.60 1507.2587
659.65 1507.1638
659.70 1510.4819
659.75 1514.2278
659.80 1518.3602
659.85 1522.8090
659.90 1527.5516
659.95 1532.5208
660.00 1537.6801
660.05 1542.9773
660.10 1548.3501
660.15 1553.7830
660.20 1559.1947
660.25 1564.5518
660.30 1569.8148
660.35 1574.9091
660.40 1579.8212
660.45 1584.4740
660.50 1588.8357
660.55 1589.1844
660.60 1589.0648
660.65 1588.6543
660.70 1587.9808
660.75 1587.0712
660.80 1585.9521
660.85 1584.6570
660.90 1583.2039
660.95 1581.6284
661.00 1579.9534
661.05 1578.2054
661.10 1576.4185
661.15 1574.6118
661.20 1572.8179
661.25 1571.0620
661.30 1569.3701
661.35 1567.7751
661.40 1567.3455
661.45 1568.1460
661.50 1569.0580
661.55 1570.0676
661.60 1571.1560
661.65 1572.3143
661.70 1573.5225
661.75 1574.7675
661.80 1576.0360
661.85 1577.3085
661.90 1578.5764
661.95 1579.8196
662.00 1581.0266
662.05 1582.1814
662.10 1583.2664
662.15 1584.2719
662.20 1585.1802
662.25 1585.9760
662.30 1585.4725
662.35 1584.8135
662.40 1584.0430
662.45 1583.1743
662.50 1582.2133
662.55 1581.1687
662.60 1580.0544
662.65 1578.8726
662.70 1577.6357
662.75 1576.3533
662.80 1575.0303
662.85 1573.6819
662.90 1572.3104
662.95 1570.9290
663.00 1569.5459
663.05 1568.1664
663.10 1566.8059
663.15 1565.6898
663.20 1564.9387
663.25 1564.2141
663.30 1563.5125
663.35 1562.8350
663.40 1562.1757
663.45 1561.5359
663.50 1560.9120
663.55 1560.3018
663.60 1559.7054
663.65 1559.1172
663.70 1558.5383
663.75 1557.9658
663.80 1557.3960
663.85 1556.8303
663.90 1556.2627
663.95 1555.6943
664.00 1555.1219
664.05 1554.1794
664.10 1553.1379
664.15 1552.1014
664.20 1551.0796
664.25 1550.0775
664.30 1549.1021
664.35 1548.1602
664.40 1547.2582
664.45 1546.4043
664.50 1545.6052
664.55 1544.8672
664.60 1544.1975
664.65 1543.6024
664.70 1543.0887
664.75 1542.6643
664.80 1542.3354
664.85 1542.1089
664.90 1542.1829
664.95 1543.6729
665.00 1545.2548
665.05 1546.9023
665.10 1548.5964
665.15 1550.3154
665.20 1552.0374
665.25 1553.7406
665.30 1555.4043
665.35 1557.0032
665.40 1558.5186
665.45 1559.9258
665.50 1561.2065
665.55 1562.3398
665.60 1563.2988
665.65 1564.0654
665.70 1564.6174
665.75 1564.9335
665.80 1563.6846
665.85 1560.3944
665.90 1556.8789
665.95 1553.1898
666.00 1549.3586
666.05 1545.4163
666.10 1541.4207
666.15 1537.3848
666.20 1533.3636
666.25 1529.3840
666.30 1525.4868
666.35 1521.7191
666.40 1518.0956
666.45 1514.6757
666.50 1511.4841
666.55 1508.5610
666.60 1505.9487
666.65 1503.6748
666.70 1504.3291
666.75 1506.6249
666.80 1509.2582
666.85 1512.1819
666.90 1515.3728
666.95 1518.7881
667.00 1522.3945
667.05 1526.1602
667.10 1530.0370
667.15 1534.0057
667.20 1538.0210
667.25 1542.0511
667.30 1546.0643
667.35 1550.0116
667.40 1553.8783
667.45 1557.6121
667.50 1561.1849
667.55 1564.5643
667.60 1565.3579
667.65 1565.5662
667.70 1565.5686
667.75 1565.3812
667.80 1565.0204
667.85 1564.5043
667.90 1563.8462
667.95 1563.0652
668.00 1562.1750
668.05 1561.1929
668.10 1560.1381
668.15 1559.0199
668.20 1557.8612
668.25 1556.6755
668.30 1555.4768
668.35 1554.2861
668.40 1553.1146
668.45 1552.0027
668.50 1552.1777
668.55 1552.3988
668.60 1552.6570
668.65 1552.9468
668.70 1553.2592
668.75 1553.5864
668.80 1553.9224
668.85 1554.2572
668.90 1554.5864
668.95 1554.9004
669.00 1555.1923
669.05 1555.4548
669.10 1555.6792
669.15 1555.8601
669.20 1555.9883
669.25 1556.0575
669.30 1556.0594
669.35 1555.8855
669.40 1554.8783
669.45 1553.8016
669.50 1552.6619
669.55 1551.4670
669.60 1550.2295
669.65 1548.9500
669.70 1547.6453
669.75 1546.3201
669.80 1544.9808
669.85 1543.6428
669.90 1542.3065
669.95 1540.9849
670.00 1539.6865
670.05 1538.4164
670.10 1537.1897
670.15 1536.0061
670.20 1534.8812
670.25 1533.9883
670.30 1533.9592
670.35 1533.9907
670.40 1534.0730
670.45 1534.1960
670.50 1534.3505
670.55 1534.5273
670.60 1534.7167
670.65 1534.9095
670.70 1535.0961
670.75 1535.2668
670.80 1535.4126
670.85 1535.5237
670.90 1535.5911
670.95 1535.6050
671.00 1535.5562
671.05 1535.4351
671.10 1535.2333
671.15 1534.7188
671.20 1533.1206
671.25 1531.4390
671.30 1529.6846
671.35 1527.8792
671.40 1526.0243
671.45 1524.1400
671.50 1522.2393
671.55 1520.3301
671.60 1518.4349
671.65 1516.5555
671.70 1514.7113
671.75 1512.9149
671.80 1511.1750
671.85 1509.5134
671.90 1507.9310
671.95 1506.4495
672.00 1505.0800
672.05 1503.9896
672.10 1503.9911
672.15 1504.1189
672.20 1504.3643
672.25 1504.7211
672.30 1505.1810
672.35 1505.7351
672.40 1506.3788
672.45 1507.1013
672.50 1507.8962
672.55 1508.7572
672.60 1509.6729
672.65 1510.6409
672.70 1511.6492
672.75 1512.6917
672.80 1513.7634
672.85 1514.8503
672.90 1515.9519
672.95 1517.0444
673.00 1517.9258
673.05 1518.8002
673.10 1519.6624
673.15 1520.5131
673.20 1521.3446
673.25 1522.1563
673.30 1522.9432
673.35 1523.7010
673.40 1524.4287
673.45 1525.1210
673.50 1525.7742
673.55 1526.3856
673.60 1526.9517
673.65 1527.4696
673.70 1527.9340
673.75 1528.3423
673.80 1528.6918
673.85 1528.9779
673.90 1528.7719
673.95 1528.4629
674.00 1528.0967
674.05 1527.6791
674.10 1527.2137
674.15 1526.7069
674.20 1526.1624
674.25 1525.5864
674.30 1524.9833
674.35 1524.3591
674.40 1523.7172
674.45 1523.0638
674.50 1522.4021
674.55 1521.7395
674.60 1521.0796
674.65 1520.4282
674.70 1519.7893
674.75 1519.1687
674.80 1518.8207
674.85 1518.5930
674.90 1518.3872
674.95 1518.2020
675.00 1518.0359
675.05 1517.8876
675.10 1517.7557
675.15 1517.6392
675.20 1517.5365
675.25 1517.4463
675.30 1517.3674
675.35 1517.2986
675.40 1517.2382
675.45 1517.1851
675.50 1517.1381
675.55 1517.0952
675.60 1517.0562
675.65 1517.0188
675.70 1516.9779
675.75 1516.9319
675.80 1516.8835
675.85 1516.8329
675.90 1516.7781
675.95 1516.7181
676.00 1516.6521
676.05 1516.5781
676.10 1516.4963
676.15 1516.4042
676.20 1516.3013
676.25 1516.1869
676.30 1516.0586
676.35 1515.9167
676.40 1515.7592
676.45 1515.5850
676.50 1515.3934
676.55 1515.1826
676.60 1514.9163
676.65 1514.4828
676.70 1514.0320
676.75 1513.5652
676.80 1513.0839
676.85 1512.5913
676.90 1512.0879
676.95 1511.5776
677.00 1511.0620
677.05 1510.5420
677.10 1510.0222
677.15 1509.5015
677.20 1508.9847
677.25 1508.4729
677.30 1507.9670
677.35 1507.4722
677.40 1506.9871
677.45 1506.5161
677.50 1506.0604
677.55 1505.7632
677.60 1505.5054
677.65 1505.2637
677.70 1505.0378
677.75 1504.8265
677.80 1504.6289
677.85 1504.4448
677.90 1504.2725
677.95 1504.1118
678.00 1503.9622
678.05 1503.8215
678.10 1503.6907
678.15 1503.5674
678.20 1503.4521
678.25 1503.3430
678.30 1503.2397
678.35 1503.1416
678.40 1503.0476
678.45 1502.9612
678.50 1502.8822
678.55 1502.8046
678.60 1502.7278
678.65 1502.6506
678.70 1502.5715
678.75 1502.4907
678.80 1502.4065
678.85 1502.3182
678.90 1502.2244
678.95 1502.1245
679.00 1502.0178
679.05 1501.9031
679.10 1501.7792
679.15 1501.6453
679.20 1501.5005
679.25 1501.3440
679.30 1501.1747
679.35 1500.9885
679.40 1500.7186
679.45 1500.4349
679.50 1500.1370
679.55 1499.8247
679.60 1499.5004
679.65 1499.1624
679.70 1498.8119
679.75 1498.4486
679.80 1498.0731
679.85 1497.6869
679.90 1497.2885
679.95 1496.8794
680.00 1496.4597
680.05 1496.0291
680.10 1495.5896
680.15 1495.1385
680.20 1494.6787
680.25 1494.2100
680.30 1493.6512
680.35 1493.0238
680.40 1492.3904
680.45 1491.7557
680.50 1491.1233
680.55 1490.4939
680.60 1489.8729
680.65 1489.2606
680.70 1488.6620
680.75 1488.0786
680.80 1487.5131
680.85 1486.9706
680.90 1486.4501
680.95 1485.9573
681.00 1485.4940
681.05 1485.0629
681.10 1484.6680
681.15 1484.3101
681.20 1484.0028
681.25 1484.1503
681.30 1484.3373
681.35 1484.5576
681.40 1484.8085
681.45 1485.0845
681.50 1485.3807
681.55 1485.6937
681.60 1486.0178
681.65 1486.3494
681.70 1486.6835
681.75 1487.0154
681.80 1487.3416
681.85 1487.6556
681.90 1487.9554
681.95 1488.2346
682.00 1488.4895
682.05 1488.7157
682.10 1488.9076
682.15 1488.8558
682.20 1488.4973
682.25 1488.1039
682.30 1487.6790
682.35 1487.2274
682.40 1486.7510
682.45 1486.2549
682.50 1485.7424
682.55 1485.2172
682.60 1484.6841
682.65 1484.1443
682.70 1483.6038
682.75 1483.0648
682.80 1482.5321
682.85 1482.0100
682.90 1481.4993
682.95 1481.0067
683.00 1480.5350
683.05 1480.0868
683.10 1479.8738
683.15 1479.7406
683.20 1479.6348
683.25 1479.5559
683.30 1479.5023
683.35 1479.4739
683.40 1479.4697
683.45 1479.4888
683.50 1479.5308
683.55 1479.5946
683.60 1479.6794
683.65 1479.7847
683.70 1479.9095
683.75 1480.0530
683.80 1480.2147
683.85 1480.3933
683.90 1480.5887
683.95 1480.8000
684.00 1481.0906
684.05 1481.9160
684.10 1482.7429
684.15 1483.5619
684.20 1484.3617
684.25 1485.1316
684.30 1485.8591
684.35 1486.5352
684.40 1487.1484
684.45 1487.6882
684.50 1488.1443
684.55 1488.5054
684.60 1488.7606
684.65 1488.8994
684.70 1488.9110
684.75 1488.7849
684.80 1488.5100
684.85 1488.0762
684.90 1487.4729
684.95 1485.8887
685.00 1482.7626
685.05 1479.4788
685.10 1476.0819
685.15 1472.5764
685.20 1469.0046
685.25 1465.3857
685.30 1461.7397
685.35 1458.1123
685.40 1454.5063
685.45 1450.9614
685.50 1447.5033
685.55 1444.1484
685.60 1440.9414
685.65 1437.8843
685.70 1435.0229
685.75 1432.3726
685.80 1429.9597
685.85 1427.8186
685.90 1427.6243
685.95 1428.9276
686.00 1430.4973
686.05 1432.3120
686.10 1434.3427
686.15 1436.5770
686.20 1438.9829
686.25 1441.5414
686.30 1444.2332
686.35 1447.0243
686.40 1449.9084
686.45 1452.8524
686.50 1455.8335
686.55 1458.8374
686.60 1461.8251
686.65 1464.7932
686.70 1467.7080
686.75 1470.5481
686.80 1473.2977
686.85 1474.8369
686.90 1475.8711
686.95 1476.7845
687.00 1477.5795
687.05 1478.2616
687.10 1478.8298
687.15 1479.2893
687.20 1479.6410
687.25 1479.8879
687.30 1480.0322
687.35 1480.0762
687.40 1480.0227
687.45 1479.8738
687.50 1479.6321
687.55 1479.2991
687.60 1478.8793
687.65 1478.3728
687.70 1477.7832
687.75 1477.1130
687.80 1475.9418
687.85 1474.6240
687.90 1473.2461
687.95 1471.8213
688.00 1470.3612
688.05 1468.8726
688.10 1467.3739
688.15 1465.8655
688.20 1464.3660
688.25 1462.8848
688.30 1461.4271
688.35 1460.0146
688.40 1458.6462
688.45 1457.3402
688.50 1456.1044
688.55 1454.9490
688.60 1453.8882
688.65 1452.9275
688.70 1452.0815
688.75 1452.5054
688.80 1453.1790
688.85 1453.9548
688.90 1454.8271
688.95 1455.7820
689.00 1456.8086
689.05 1457.8989
689.10 1459.0365
689.15 1460.2186
689.20 1461.4276
689.25 1462.6570
689.30 1463.8962
689.35 1465.1287
689.40 1466.3529
689.45 1467.5518
689.50 1468.7167
689.55 1469.8381
689.60 1470.9016
689.65 1471.9022
689.70 1472.1736
689.75 1472.2947
689.80 1472.3411
689.85 1472.3147
689.90 1472.2166
689.95 1472.0482
690.00 1471.8114
690.05 1471.5071
690.10 1471.1376
690.15 1470.7031
690.20 1470.2069
690.25 1469.6488
690.30 1469.0298
690.35 1468.3553
690.40 1467.6211
690.45 1466.8335
690.50 1465.9911
690.55 1465.0951
690.60 1464.1508
690.65 1462.8745
690.70 1461.5049
690.75 1460.0981
690.80 1458.6594
690.85 1457.2029
690.90 1455.7283
690.95 1454.2440
691.00 1452.7590
691.05 1451.2778
691.10 1449.8123
691.15 1448.3594
691.20 1446.9360
691.25 1445.5449
691.30 1444.1904
691.35 1442.8870
691.40 1441.6316
691.45 1440.4392
691.50 1439.3124
691.55 1438.2578
691.60 1437.8412
691.65 1437.6947
691.70 1437.6206
691.75 1437.6138
691.80 1437.6683
691.85 1437.7791
691.90 1437.9407
691.95 1438.1475
692.00 1438.3940
692.05 1438.6752
692.10 1438.9847
692.15 1439.3188
692.20 1439.6708
692.25 1440.0352
692.30 1440.4076
692.35 1440.7813
692.40 1441.1522
692.45 1441.5139
692.50 1441.8612
692.55 1441.9099
692.60 1441.7402
692.65 1441.5526
692.70 1441.3495
692.75 1441.1332
692.80 1440.9066
692.85 1440.6718
692.90 1440.4304
692.95 1440.1863
693.00 1439.9408
693.05 1439.6967
693.10 1439.4565
693.15 1439.2224
693.20 1438.9965
693.25 1438.7817
693.30 1438.5806
693.35 1438.3950
693.40 1438.2278
693.45 1438.0804
693.50 1438.0897
693.55 1438.3431
693.60 1438.6166
693.65 1438.9061
693.70 1439.2083
693.75 1439.5210
693.80 1439.8391
693.85 1440.1599
693.90 1440.4803
693.95 1440.7966
694.00 1441.1058
694.05 1441.4045
694.10 1441.6893
694.15 1441.9561
694.20 1442.2025
694.25 1442.4253
694.30 1442.6206
694.35 1442.7849
694.40 1442.9154
694.45 1442.9595
694.50 1442.5731
694.55 1442.1498
694.60 1441.6958
694.65 1441.2113
694.70 1440.7035
694.75 1440.1746
694.80 1439.6273
694.85 1439.0686
694.90 1438.4980
694.95 1437.9227
695.00 1437.3450
695.05 1436.7679
695.10 1436.1980
695.15 1435.6350
695.20 1435.0859
695.25 1434.5535
695.30 1434.0404
695.35 1433.5527
695.40 1433.0912
695.45 1432.9623
695.50 1432.9413
695.55 1432.9481
695.60 1432.9805
695.65 1433.0361
695.70 1433.1127
695.75 1433.2070
695.80 1433.3182
695.85 1433.4426
695.90 1433.5786
695.95 1433.7236
696.00 1433.8754
696.05 1434.0316
696.10 1434.1893
696.15 1434.3474
696.20 1434.5027
696.25 1434.6523
696.30 1434.7957
696.35 1434.9285
696.40 1435.0536
696.45 1435.1688
696.50 1435.2673
696.55 1435.3470
696.60 1435.4043
696.65 1435.4379
696.70 1435.4447
696.75 1435.4226
696.80 1435.3689
696.85 1435.2813
696.90 1435.1571
696.95 1434.9941
697.00 1434.7903
697.05 1434.5420
697.10 1434.2483
697.15 1433.9055
697.20 1433.5116
697.25 1433.0652
697.30 1432.5613
697.35 1432.0013
697.40 1430.5505
697.45 1429.0505
697.50 1427.5117
697.55 1425.9413
697.60 1424.3589
697.65 1422.7631
697.70 1421.1755
697.75 1419.6010
697.80 1418.0513
697.85 1416.5399
697.90 1415.0723
697.95 1413.6631
698.00 1412.3213
698.05 1411.0569
698.10 1409.8846
698.15 1408.8090
698.20 1407.8455
698.25 1407.0028
698.30 1406.2909
698.35 1406.6182
698.40 1407.9139
698.45 1409.3286
698.50 1410.8489
698.55 1412.4609
698.60 1414.1392
698.65 1415.8792
698.70 1417.6537
698.75 1419.4521
698.80 1421.2568
698.85 1423.0474
698.90 1424.8147
698.95 1426.5366
699.00 1428.1987
699.05 1429.7861
699.10 1431.2759
699.15 1432.6610
699.20 1433.9177
699.25 1435.0322
699.30 1435.9891
699.35 1434.8339
699.40 1433.4897
699.45 1432.0020
699.50 1430.3822
699.55 1428.6416
699.60 1426.8051
699.65 1424.8729
699.70 1422.8718
699.75 1420.8090
699.80 1418.7010
699.85 1416.5658
699.90 1414.4100
699.95 1412.2539
700.00 1410.1099
700.05 1407.9905
700.10 1405.9175
700.15 1403.8939
700.20 1401.9436
700.25 1400.0767
700.30 1398.8625
700.35 1398.5901
700.40 1398.4133
700.45 1398.3254
700.50 1398.3187
700.55 1398.3856
700.60 1398.5189
700.65 1398.7118
700.70 1398.9556
700.75 1399.2439
700.80 1399.5691
700.85 1399.9226
700.90 1400.2992
700.95 1400.6898
701.00 1401.0874
701.05 1401.4856
701.10 1401.8750
701.15 1402.2507
701.20 1402.6033
701.25 1402.9261
701.30 1402.5923
701.35 1402.0233
701.40 1401.4241
701.45 1400.8020
701.50 1400.1614
701.55 1399.5063
701.60 1398.8461
701.65 1398.1819
701.70 1397.5209
701.75 1396.8690
701.80 1396.2295
701.85 1395.6112
701.90 1395.0151
701.95 1394.4507
702.00 1393.9211
702.05 1393.4310
702.10 1392.9885
702.15 1392.5956
702.20 1392.2600
702.25 1392.0261
702.30 1392.5184
702.35 1393.0717
702.40 1393.6809
702.45 1394.3392
702.50 1395.0420
702.55 1395.7841
702.60 1396.5594
702.65 1397.3650
702.70 1398.1902
702.75 1399.0339
702.80 1399.8884
702.85 1400.7498
702.90 1401.6122
702.95 1402.4702
703.00 1403.3177
703.05 1404.1487
703.10 1404.9597
703.15 1405.7439
703.20 1406.4961
703.25 1407.0184
703.30 1407.0547
703.35 1407.0557
703.40 1407.0261
703.45 1406.9701
703.50 1406.8920
703.55 1406.7961
703.60 1406.6875
703.65 1406.5698
703.70 1406.4480
703.75 1406.3260
703.80 1406.2083
703.85 1406.0994
703.90 1406.0033
703.95 1405.9248
704.00 1405.8680
704.05 1405.8373
704.10 1405.8374
704.15 1405.8723
704.20 1405.9462
704.25 1406.4353
704.30 1407.3523
704.35 1408.3002
704.40 1409.2791
704.45 1410.2777
704.50 1411.2885
704.55 1412.3081
704.60 1413.3237
704.65 1414.3330
704.70 1415.3267
704.75 1416.2971
704.80 1417.2400
704.85 1418.1436
704.90 1419.0059
704.95 1419.8162
705.00 1420.5684
705.05 1421.2563
705.10 1421.8704
705.15 1422.4067
705.20 1422.8562
705.25 1422.7815
705.30 1422.3569
705.35 1421.8427
705.40 1421.2400
705.45 1420.5540
705.50 1419.7881
705.55 1418.9431
705.60 1418.0269
705.65 1417.0380
705.70 1415.9829
705.75 1414.8638
705.80 1413.6825
705.85 1412.4473
705.90 1411.1556
705.95 1409.8130
706.00 1408.4242
706.05 1406.9897
706.10 1405.5186
706.15 1404.0056
706.20 1402.4592
706.25 1400.4886
706.30 1398.3301
706.35 1396.1655
706.40 1393.9983
706.45 1391.8464
706.50 1389.7216
706.55 1387.6293
706.60 1385.5912
706.65 1383.6072
706.70 1381.6986
706.75 1379.8749
706.80 1378.1410
706.85 1376.5203
706.90 1375.0131
706.95 1373.6384
707.00 1372.4052
707.05 1371.3236
707.10 1370.4084
707.15 1369.6677
707.20 1369.1161
707.25 1370.3274
707.30 1372.3096
707.35 1374.4546
707.40 1376.7499
707.45 1379.1678
707.50 1381.6914
707.55 1384.3013
707.60 1386.9673
707.65 1389.6816
707.70 1392.4158
707.75 1395.1519
707.80 1397.8750
707.85 1400.5486
707.90 1403.1704
707.95 1405.7074
708.00 1408.1439
708.05 1410.4641
708.10 1412.6343
708.15 1414.6512
708.20 1416.4800
708.25 1416.3044
708.30 1415.1384
708.35 1413.7974
708.40 1412.2928
708.45 1410.6506
708.50 1408.8875
708.55 1407.0166
708.60 1405.0654
708.65 1403.0409
708.70 1400.9711
708.75 1398.8701
708.80 1396.7523
708.85 1394.6483
708.90 1392.5615
708.95 1390.5189
709.00 1388.5383
709.05 1386.6321
709.10 1384.8296
709.15 1383.1346
709.20 1381.5779
709.25 1381.5028
709.30 1382.4559
709.35 1383.5405
709.40 1384.7471
709.45 1386.0579
709.50 1387.4595
709.55 1388.9399
709.60 1390.4763
709.65 1392.0640
709.70 1393.6810
709.75 1395.3158
709.80 1396.9570
709.85 1398.5808
709.90 1400.1833
709.95 1401.7444
710.00 1403.2485
710.05 1404.6865
710.10 1406.0365
710.15 1407.2910
710.20 1408.4314
710.25 1408.7083
710.30 1407.9714
710.35 1407.1162
710.40 1406.1462
710.45 1405.0756
710.50 1403.9115
710.55 1402.6625
710.60 1401.3417
710.65 1399.9526
710.70 1398.5112
710.75 1397.0232
710.80 1395.4950
710.85 1393.9437
710.90 1392.3710
710.95 1390.7909
711.00 1389.2124
711.05 1387.6404
711.10 1386.0922
711.15 1384.5673
711.20 1383.0833
711.25 1381.8822
711.30 1381.4431
711.35 1381.0530
711.40 1380.7050
711.45 1380.3967
711.50 1380.1226
711.55 1379.8773
711.60 1379.6582
711.65 1379.4590
711.70 1379.2759
711.75 1379.1040
711.80 1378.9388
711.85 1378.7759
711.90 1378.6104
711.95 1378.4382
712.00 1378.2548
712.05 1378.0549
712.10 1377.8347
712.15 1377.5889
712.20 1377.3138
712.25 1377.0048
712.30 1375.7678
712.35 1374.4882
712.40 1373.1870
712.45 1371.8715
712.50 1370.5540
712.55 1369.2405
712.60 1367.9395
712.65 1366.6599
712.70 1365.4100
712.75 1364.1976
712.80 1363.0334
712.85 1361.9258
712.90 1360.8821
712.95 1359.9114
713.00 1359.0217
713.05 1358.2207
713.10 1357.5190
713.15 1356.9242
713.20 1356.4456
713.25 1356.0901
713.30 1357.0345
713.35 1358.6979
713.40 1360.4629
713.45 1362.3193
713.50 1364.2489
713.55 1366.2327
713.60 1368.2595
713.65 1370.3044
713.70 1372.3545
713.75 1374.3910
713.80 1376.4008
713.85 1378.3672
713.90 1380.2693
713.95 1382.0902
714.00 1383.8152
714.05 1385.4275
714.10 1386.9114
714.15 1388.2473
714.20 1389.4185
714.25 1390.4110
714.30 1390.4912
714.35 1388.5754
714.40 1386.4789
714.45 1384.2206
714.50 1381.8140
714.55 1379.2821
714.60 1376.6404
714.65 1373.9164
714.70 1371.1244
714.75 1368.2832
714.80 1365.4125
714.85 1362.5283
714.90 1359.6555
714.95 1356.8136
715.00 1354.0186
715.05 1351.2867
715.10 1348.6409
715.15 1346.1018
715.20 1343.6865
715.25 1341.4160
715.30 1339.3052
715.35 1339.0724
715.40 1339.3192
715.45 1339.7321
715.50 1340.3011
715.55 1341.0164
715.60 1341.8715
715.65 1342.8513
715.70 1343.9497
715.75 1345.1575
715.80 1346.4626
715.85 1347.8591
715.90 1349.3340
715.95 1350.8777
716.00 1352.4836
716.05 1354.1392
716.10 1355.8401
716.15 1357.5698
716.20 1359.3223
716.25 1361.0878
716.30 1362.8555
716.35 1364.5808
716.40 1366.2163
716.45 1367.8275
716.50 1369.4084
716.55 1370.9514
716.60 1372.4495
716.65 1373.8926
716.70 1375.2733
716.75 1376.5837
716.80 1377.8169
716.85 1378.9673
716.90 1380.0222
716.95 1380.9766
717.00 1381.8225
717.05 1382.5510
717.10 1383.1570
717.15 1383.6296
717.20 1383.9633
717.25 1384.1489
717.30 1384.1796
717.35 1384.0471
717.40 1382.5829
717.45 1380.6619
717.50 1378.5941
717.55 1376.3904
717.60 1374.0580
717.65 1371.6201
717.70 1369.0844
717.75 1366.4663
717.80 1363.7738
717.85 1361.0220
717.90 1358.2238
717.95 1355.3948
718.00 1352.5448
718.05 1349.6868
718.10 1346.8306
718.15 1343.9976
718.20 1341.1920
718.25 1338.4324
718.30 1335.7283
718.35 1333.0901
718.40 1330.6799
718.45 1328.9993
718.50 1327.4122
718.55 1325.9216
718.60 1324.5254
718.65 1323.2302
718.70 1322.0350
718.75 1320.9419
718.80 1319.9526
718.85 1319.0675
718.90 1318.2909
718.95 1317.6226
719.00 1317.0641
719.05 1316.6179
719.10 1316.2850
719.15 1316.0676
719.20 1315.9674
719.25 1315.9854
719.30 1316.1235
719.35 1316.3839
719.40 1316.7673
719.45 1317.7369
719.50 1319.2666
719.55 1320.9042
719.60 1322.6438
719.65 1324.4690
719.70 1326.3689
719.75 1328.3347
719.80 1330.3550
719.85 1332.4233
719.90 1334.5182
719.95 1336.6375
720.00 1338.7654
720.05 1340.8960
720.10 1343.0160
720.15 1345.1121
720.20 1347.1758
720.25 1349.1965
720.30 1351.1614
720.35 1353.0651
720.40 1354.8911
720.45 1356.6287
720.50 1357.6135
720.55 1358.3132
720.60 1358.9159
720.65 1359.4202
720.70 1359.8279
720.75 1360.1405
720.80 1360.3588
720.85 1360.4838
720.90 1360.5156
720.95 1360.4559
721.00 1360.3057
721.05 1360.0654
721.10 1359.7360
721.15 1359.3191
721.20 1358.8152
721.25 1358.2250
721.30 1357.5498
721.35 1356.7893
721.40 1355.9460
721.45 1355.0214
721.50 1354.0139
721.55 1352.0054
721.60 1349.9150
721.65 1347.7740
721.70 1345.5935
721.75 1343.3875
721.80 1341.1721
721.85 1338.9563
721.90 1336.7568
721.95 1334.5891
722.00 1332.4651
722.05 1330.3979
722.10 1328.4021
722.15 1326.4929
722.20 1324.6785
722.25 1322.9785
722.30 1321.4060
722.35 1319.9731
722.40 1318.6938
722.45 1317.5825
722.50 1316.6503
722.55 1316.2152
722.60 1317.9365
722.65 1319.8467
722.70 1321.9238
722.75 1324.1528
722.80 1326.5184
722.85 1328.9969
722.90 1331.5774
722.95 1334.2378
723.00 1336.9661
723.05 1339.7396
723.10 1342.5466
723.15 1345.3640
723.20 1348.1775
723.25 1350.9670
723.30 1353.7207
723.35 1356.4215
723.40 1359.0442
723.45 1361.5765
723.50 1364.0018
723.55 1366.3026
723.60 1368.0332
723.65 1368.0916
723.70 1368.0066
723.75 1367.7874
723.80 1367.4441
723.85 1366.9856
723.90 1366.4219
723.95 1365.7622
724.00 1365.0168
724.05 1364.1938
724.10 1363.3030
724.15 1362.3541
724.20 1361.3574
724.25 1360.3225
724.30 1359.2567
724.35 1358.1697
724.40 1357.0723
724.45 1355.9747
724.50 1354.8850
724.55 1353.8123
724.60 1352.7644
724.65 1351.9819
724.70 1351.9336
724.75 1351.9247
724.80 1351.9514
724.85 1352.0114
724.90 1352.1011
724.95 1352.2170
725.00 1352.3567
725.05 1352.5167
725.10 1352.6943
725.15 1352.8853
725.20 1353.0874
725.25 1353.2979
725.30 1353.5125
725.35 1353.7290
725.40 1353.9438
725.45 1354.1543
725.50 1354.3568
725.55 1354.5486
725.60 1354.7264
725.65 1354.8875
725.70 1354.9611
725.75 1354.7634
725.80 1354.5448
725.85 1354.3057
725.90 1354.0486
725.95 1353.7737
726.00 1353.4824
726.05 1353.1763
726.10 1352.8557
726.15 1352.5225
726.20 1352.1779
726.25 1351.8229
726.30 1351.4583
726.35 1351.0856
726.40 1350.7062
726.45 1350.3209
726.50 1349.9312
726.55 1349.5381
726.60 1349.1420
726.65 1348.7457
726.70 1348.3491
726.75 1348.0055
726.80 1348.0532
726.85 1348.0977
726.90 1348.1345
726.95 1348.1584
727.00 1348.1650
727.05 1348.1494
727.10 1348.1073
727.15 1348.0332
727.20 1347.9227
727.25 1347.7714
727.30 1347.5740
727.35 1347.3254
727.40 1347.0226
727.45 1346.6591
727.50 1346.2312
727.55 1345.7339
727.60 1345.1616
727.65 1344.5110
727.70 1343.7766
727.75 1342.9548
727.80 1342.0391
727.85 1339.6686
727.90 1337.1594
727.95 1334.5801
728.00 1331.9448
728.05 1329.2678
728.10 1326.5599
728.15 1323.8446
728.20 1321.1273
728.25 1318.4275
728.30 1315.7566
728.35 1313.1263
728.40 1310.5558
728.45 1308.0569
728.50 1305.6458
728.55 1303.3318
728.60 1301.1313
728.65 1299.0587
728.70 1297.1301
728.75 1295.3590
728.80 1293.7557
728.85 1292.3351
728.90 1292.8457
728.95 1294.1476
729.00 1295.6215
729.05 1297.2498
729.10 1299.0197
729.15 1300.9050
729.20 1302.8961
729.25 1304.9741
729.30 1307.1198
729.35 1309.3230
729.40 1311.5579
729.45 1313.8115
729.50 1316.0674
729.55 1318.3090
729.60 1320.5210
729.65 1322.6801
729.70 1324.7740
729.75 1326.7880
729.80 1328.7006
729.85 1330.4995
729.90 1332.1638
729.95 1332.6194
730.00 1331.6848
730.05 1330.6108
730.10 1329.4116
730.15 1328.1006
730.20 1326.6932
730.25 1325.2008
730.30 1323.6394
730.35 1322.0173
730.40 1320.3528
730.45 1318.6594
730.50 1316.9473
730.55 1315.2334
730.60 1313.5278
730.65 1311.8473
730.70 1310.2039
730.75 1308.6121
730.80 1307.0823
730.85 1305.6284
730.90 1304.2681
730.95 1303.0115
731.00 1302.0947
731.05 1302.9672
731.10 1303.9570
731.15 1305.0497
731.20 1306.2371
731.25 1307.5056
731.30 1308.8446
731.35 1310.2434
731.40 1311.6917
731.45 1313.1757
731.50 1314.6848
731.55 1316.2067
731.60 1317.7328
731.65 1319.2491
731.70 1320.7473
731.75 1322.2125
731.80 1323.6359
731.85 1325.0052
731.90 1326.3098
731.95 1327.5369
732.00 1328.6791
732.05 1329.7200
732.10 1329.4462
732.15 1328.5793
732.20 1327.6179
732.25 1326.5728
732.30 1325.4550
732.35 1324.2751
732.40 1323.0453
732.45 1321.7759
732.50 1320.4766
732.55 1319.1589
732.60 1317.8319
732.65 1316.5096
732.70 1315.2012
732.75 1313.9189
732.80 1312.6721
732.85 1311.4688
732.90 1310.3252
732.95 1309.2495
733.00 1308.2534
733.05 1307.3456
733.10 1306.5371
733.15 1306.2454
733.20 1307.3217
733.25 1308.5039
733.30 1309.7806
733.35 1311.1431
733.40 1312.5771
733.45 1314.0739
733.50 1315.6206
733.55 1317.2083
733.60 1318.8293
733.65 1320.4666
733.70 1322.1125
733.75 1323.7567
733.80 1325.3864
733.85 1326.9960
733.90 1328.5699
733.95 1330.0974
734.00 1331.5695
734.05 1332.9755
734.10 1334.3058
734.15 1335.5476
734.20 1336.6910
734.25 1336.8070
734.30 1336.4443
734.35 1335.9797
734.40 1335.4200
734.45 1334.7711
734.50 1334.0386
734.55 1333.2288
734.60 1332.3462
734.65 1331.4000
734.70 1330.3940
734.75 1329.3337
734.80 1328.2268
734.85 1327.0768
734.90 1325.8926
734.95 1324.6786
735.00 1323.4419
735.05 1322.1863
735.10 1320.9187
735.15 1319.6465
735.20 1318.3744
735.25 1317.1082
735.30 1315.8882
735.35 1314.9426
735.40 1314.0176
735.45 1313.1151
735.50 1312.2367
735.55 1311.3842
735.60 1310.5581
735.65 1309.7642
735.70 1309.0035
735.75 1308.2769
735.80 1307.5868
735.85 1306.9358
735.90 1306.3269
735.95 1305.7603
736.00 1305.2400
736.05 1304.7676
736.10 1304.3440
736.15 1303.9730
736.20 1303.6558
736.25 1303.3953
736.30 1303.1929
736.35 1303.0508
736.40 1303.3351
736.45 1304.1067
736.50 1304.9305
736.55 1305.7987
736.60 1306.7030
736.65 1307.6355
736.70 1308.5876
736.75 1309.5522
736.80 1310.5214
736.85 1311.4880
736.90 1312.4426
736.95 1313.3771
737.00 1314.2856
737.05 1315.1580
737.10 1315.9886
737.15 1316.7675
737.20 1317.4880
737.25 1318.1421
737.30 1318.7218
737.35 1319.2197
737.40 1319.6268
737.45 1319.9362
737.50 1319.1919
737.55 1318.0087
737.60 1316.7296
737.65 1315.3701
737.70 1313.9332
737.75 1312.4287
737.80 1310.8663
737.85 1309.2499
737.90 1307.5948
737.95 1305.9056
738.00 1304.1909
738.05 1302.4612
738.10 1300.7190
738.15 1298.9786
738.20 1297.2482
738.25 1295.5344
738.30 1293.8453
738.35 1292.1863
738.40 1290.5725
738.45 1289.0105
738.50 1287.5054
738.55 1286.0686
738.60 1285.6482
738.65 1285.3489
738.70 1285.1168
738.75 1284.9482
738.80 1284.8389
738.85 1284.7844
738.90 1284.7809
738.95 1284.8245
739.00 1284.9104
739.05 1285.0347
739.10 1285.1936
739.15 1285.3826
739.20 1285.5975
739.25 1285.8347
739.30 1286.0891
739.35 1286.3582
739.40 1286.6361
739.45 1286.9196
739.50 1287.2043
739.55 1287.4865
739.60 1287.7622
739.65 1288.0100
739.70 1288.0997
739.75 1288.1726
739.80 1288.2263
739.85 1288.2590
739.90 1288.2684
739.95 1288.2527
740.00 1288.2095
740.05 1288.1367
740.10 1288.0325
740.15 1287.8945
740.20 1287.7212
740.25 1287.5101
740.30 1287.2593
740.35 1286.9659
740.40 1286.6289
740.45 1286.2457
740.50 1285.8149
740.55 1285.3334
740.60 1284.7996
740.65 1284.2113
740.70 1283.5673
740.75 1282.6887
740.80 1280.9894
740.85 1279.2390
740.90 1277.4480
740.95 1275.6311
741.00 1273.7946
741.05 1271.9458
741.10 1270.0985
741.15 1268.2622
741.20 1266.4388
741.25 1264.6494
741.30 1262.8962
741.35 1261.1921
741.40 1259.5452
741.45 1257.9630
741.50 1256.4573
741.55 1255.0388
741.60 1253.7158
741.65 1252.4991
741.70 1251.3954
741.75 1250.4167
741.80 1249.5698
741.85 1249.1866
741.90 1250.1831
741.95 1251.3185
742.00 1252.5817
742.05 1253.9658
742.10 1255.4614
742.15 1257.0542
742.20 1258.7394
742.25 1260.5035
742.30 1262.3390
742.35 1264.2383
742.40 1266.1875
742.45 1268.1769
742.50 1270.2013
742.55 1272.2467
742.60 1274.3101
742.65 1276.3729
742.70 1278.4302
742.75 1280.4723
742.80 1282.4895
742.85 1284.4745
742.90 1286.4114
742.95 1288.1799
743.00 1289.2795
743.05 1290.3158
743.10 1291.2902
743.15 1292.1998
743.20 1293.0454
743.25 1293.8254
743.30 1294.5410
743.35 1295.1907
743.40 1295.7725
743.45 1296.2871
743.50 1296.7339
743.55 1297.1118
743.60 1297.4213
743.65 1297.6602
743.70 1297.8284
743.75 1297.9258
743.80 1297.9515
743.85 1297.9048
743.90 1297.7852
743.95 1297.5918
744.00 1297.3245
744.05 1296.9517
744.10 1295.8954
744.15 1294.7712
744.20 1293.5876
744.25 1292.3506
744.30 1291.0674
744.35 1289.7419
744.40 1288.3888
744.45 1287.0095
744.50 1285.6141
744.55 1284.2065
744.60 1282.7958
744.65 1281.3888
744.70 1279.9944
744.75 1278.6180
744.80 1277.2686
744.85 1275.9482
744.90 1274.6694
744.95 1273.4382
745.00 1272.2595
745.05 1271.1431
745.10 1270.0934
745.15 1269.1200
745.20 1269.0637
745.25 1269.2104
745.30 1269.4319
745.35 1269.7238
745.40 1270.0804
745.45 1270.4976
745.50 1270.9712
745.55 1271.4961
745.60 1272.0690
745.65 1272.6838
745.70 1273.3362
745.75 1274.0222
745.80 1274.7366
745.85 1275.4772
745.90 1276.2355
745.95 1277.0094
746.00 1277.7938
746.05 1278.5837
746.10 1279.3770
746.15 1280.1665
746.20 1280.9475
746.25 1281.7168
746.30 1282.2590
746.35 1282.6575
746.40 1283.0366
746.45 1283.3965
746.50 1283.7367
746.55 1284.0564
746.60 1284.3560
746.65 1284.6338
746.70 1284.8901
746.75 1285.1244
746.80 1285.3364
746.85 1285.5258
746.90 1285.6912
746.95 1285.8333
747.00 1285.9507
747.05 1286.0439
747.10 1286.1119
747.15 1286.1542
747.20 1286.1707
747.25 1286.1608
747.30 1286.1239
747.35 1286.0596
747.40 1285.9773
747.45 1285.8867
747.50 1285.7675
747.55 1285.6183
747.60 1285.4380
747.65 1285.2267
747.70 1284.9832
747.75 1284.7062
747.80 1284.3960
747.85 1284.0503
747.90 1283.6697
747.95 1283.2532
748.00 1282.7993
748.05 1282.3076
748.10 1281.7767
748.15 1281.2076
748.20 1280.5979
748.25 1279.9475
748.30 1279.2554
748.35 1278.5199
748.40 1277.7419
748.45 1276.9199
748.50 1276.0527
748.55 1274.4500
748.60 1272.7620
748.65 1271.0471
748.70 1269.3083
748.75 1267.5569
748.80 1265.7996
748.85 1264.0416
748.90 1262.2974
748.95 1260.5691
749.00 1258.8678
749.05 1257.1985
749.10 1255.5706
749.15 1253.9941
749.20 1252.4747
749.25 1251.0208
749.30 1249.6400
749.35 1248.3391
749.40 1247.1302
749.45 1246.0171
749.50 1245.0099
749.55 1244.1154
749.60 1243.3409
749.65 1243.4218
749.70 1244.3644
749.75 1245.4255
749.80 1246.5944
749.85 1247.8656
749.90 1249.2240
749.95 1250.6632
750.00 1252.1733
750.05 1253.7456
750.10 1255.3721
750.15 1257.0398
750.20 1258.7415
750.25 1260.4655
750.30 1262.2042
750.35 1263.9485
750.40 1265.6929
750.45 1267.4202
750.50 1269.1249
750.55 1270.7959
750.60 1272.4276
750.65 1274.0068
750.70 1275.5295
750.75 1276.9799
750.80 1277.3556
750.85 1277.6407
750.90 1277.8525
750.95 1277.9935
751.00 1278.0663
751.05 1278.0734
751.10 1278.0177
751.15 1277.9015
751.20 1277.7279
751.25 1277.4990
751.30 1277.2179
751.35 1276.8868
751.40 1276.5090
751.45 1276.0864
751.50 1275.6223
751.55 1275.1177
751.60 1274.5774
751.65 1274.0032
751.70 1273.3975
751.75 1272.7625
751.80 1272.1016
751.85 1271.4166
751.90 1270.6570
751.95 1269.8015
752.00 1268.9325
752.05 1268.0537
752.10 1267.1678
752.15 1266.2833
752.20 1265.4009
752.25 1264.5253
752.30 1263.6619
752.35 1262.8119
752.40 1261.9832
752.45 1261.1780
752.50 1260.4006
752.55 1259.6548
752.60 1258.9441
752.65 1258.2745
752.70 1257.6495
752.75 1257.0723
752.80 1256.5480
752.85 1256.0793
752.90 1255.6721
752.95 1255.3292
753.00 1255.0554
753.05 1255.5225
753.10 1256.2726
753.15 1257.0840
753.20 1257.9521
753.25 1258.8718
753.30 1259.8348
753.35 1260.8374
753.40 1261.8708
753.45 1262.9292
753.50 1264.0085
753.55 1265.1014
753.60 1266.2019
753.65 1267.3027
753.70 1268.3995
753.75 1269.4845
753.80 1270.5511
753.85 1271.5969
753.90 1272.6123
753.95 1273.5923
754.00 1274.5295
754.05 1275.4192
754.10 1276.2571
754.15 1277.0000
754.20 1276.9646
754.25 1276.8665
754.30 1276.7079
754.35 1276.4911
754.40 1276.2192
754.45 1275.8947
754.50 1275.5200
754.55 1275.0979
754.60 1274.6300
754.65 1274.1202
754.70 1273.5702
754.75 1272.9829
754.80 1272.3613
754.85 1271.7058
754.90 1271.0221
754.95 1270.3110
755.00 1269.5752
755.05 1268.8173
755.10 1268.0386
755.15 1267.2440
755.20 1266.4353
755.25 1265.6138
755.30 1264.8043
755.35 1264.0465
755.40 1263.2827
755.45 1262.5166
755.50 1261.7474
755.55 1260.9771
755.60 1260.2069
755.65 1259.4403
755.70 1258.6770
755.75 1257.9202
755.80 1257.1702
755.85 1256.4282
755.90 1255.6973
755.95 1254.9785
756.00 1254.2727
756.05 1253.5830
756.10 1252.9086
756.15 1252.2537
756.20 1251.6184
756.25 1251.0046
756.30 1250.4138
756.35 1249.8469
756.40 1249.3069
756.45 1248.9636
756.50 1248.8937
756.55 1248.8477
756.60 1248.8228
756.65 1248.8157
756.70 1248.8232
756.75 1248.8423
756.80 1248.8696
756.85 1248.9021
756.90 1248.9365
756.95 1248.9698
757.00 1248.9988
757.05 1249.0204
757.10 1249.0313
757.15 1249.0286
757.20 1249.0085
757.25 1248.9688
757.30 1248.9058
757.35 1248.8162
757.40 1248.6973
757.45 1248.5461
757.50 1248.3586
757.55 1248.1326
757.60 1247.4688
757.65 1246.3485
757.70 1245.1927
757.75 1244.0083
757.80 1242.8030
757.85 1241.5802
757.90 1240.3472
757.95 1239.1116
758.00 1237.8782
758.05 1236.6542
758.10 1235.4417
758.15 1234.2513
758.20 1233.0886
758.25 1231.9572
758.30 1230.8655
758.35 1229.8173
758.40 1228.8212
758.45 1227.8817
758.50 1227.0054
758.55 1226.1980
758.60 1225.4653
758.65 1224.8140
758.70 1224.2504
758.75 1224.3617
758.80 1225.1624
758.85 1226.0493
758.90 1227.0129
758.95 1228.0476
759.00 1229.1440
759.05 1230.2980
759.10 1231.5022
759.15 1232.7451
759.20 1234.0223
759.25 1235.3262
759.30 1236.6500
759.35 1237.9877
759.40 1239.3276
759.45 1240.6667
759.50 1241.9951
759.55 1243.3086
759.60 1244.5979
759.65 1245.8550
759.70 1247.0737
759.75 1248.2469
759.80 1249.3674
759.85 1250.4280
759.90 1251.1213
759.95 1251.3511
760.00 1251.5104
760.05 1251.5996
760.10 1251.6199
760.15 1251.5713
760.20 1251.4550
760.25 1251.2712
760.30 1251.0204
760.35 1250.7035
760.40 1250.3213
760.45 1249.8727
760.50 1249.3606
760.55 1248.7845
760.60 1248.1453
760.65 1247.4438
760.70 1246.6796
760.75 1245.8525
760.80 1244.9663
760.85 1244.0199
760.90 1243.0122
760.95 1241.9465
761.00 1240.8221
761.05 1239.3872
761.10 1237.3181
761.15 1235.2017
761.20 1233.0531
761.25 1230.8766
761.30 1228.6875
761.35 1226.4907
761.40 1224.3008
761.45 1222.1252
761.50 1219.9741
761.55 1217.8591
761.60 1215.7834
761.65 1213.7643
761.70 1211.8105
761.75 1209.9304
761.80 1208.1335
761.85 1206.4274
761.90 1204.8264
761.95 1203.3383
762.00 1201.9736
762.05 1200.7400
762.10 1199.6472
762.15 1198.7087
762.20 1198.1184
762.25 1199.4221
762.30 1200.8834
762.35 1202.4930
762.40 1204.2355
762.45 1206.0991
762.50 1208.0764
762.55 1210.1519
762.60 1212.3182
762.65 1214.5597
762.70 1216.8668
762.75 1219.2285
762.80 1221.6333
762.85 1224.0720
762.90 1226.5256
762.95 1228.9910
763.00 1231.4504
763.05 1233.8959
763.10 1236.3213
763.15 1238.7017
763.20 1241.0365
763.25 1243.3118
763.30 1245.5159
763.35 1247.6376
763.40 1248.7581
763.45 1249.5896
763.50 1250.3270
763.55 1250.9709
763.60 1251.5229
763.65 1251.9827
763.70 1252.3511
763.75 1252.6293
763.80 1252.8182
763.85 1252.9187
763.90 1252.9314
763.95 1252.8571
764.00 1252.6968
764.05 1252.4515
764.10 1252.1211
764.15 1251.7074
764.20 1251.2106
764.25 1250.6326
764.30 1249.9731
764.35 1249.2317
764.40 1248.4122
764.45 1247.5139
764.50 1246.5376
764.55 1245.3350
764.60 1243.8916
764.65 1242.3790
764.70 1240.8019
764.75 1239.1631
764.80 1237.4663
764.85 1235.7119
764.90 1233.9120
764.95 1232.0691
765.00 1230.1832
765.05 1228.2606
765.10 1226.3057
765.15 1224.3224
765.20 1222.3171
765.25 1220.2920
765.30 1218.2517
765.35 1216.1971
765.40 1214.1377
765.45 1212.0752
765.50 1210.0164
765.55 1207.9606
765.60 1205.9142
765.65 1203.8815
765.70 1201.8599
765.75 1199.7280
765.80 1197.6262
765.85 1195.5532
765.90 1193.5220
765.95 1191.5361
766.00 1189.6030
766.05 1187.7264
766.10 1185.9080
766.15 1184.1616
766.20 1182.4886
766.25 1180.8951
766.30 1179.3882
766.35 1177.9688
766.40 1176.6472
766.45 1175.4294
766.50 1174.3191
766.55 1173.3221
766.60 1172.4423
766.65 1171.6892
766.70 1171.0665
766.75 1170.5803
766.80 1170.2354
766.85 1170.0376
766.90 1170.9138
766.95 1172.6104
767.00 1174.4437
767.05 1176.4025
767.10 1178.4774
767.15 1180.6523
767.20 1182.9177
767.25 1185.2595
767.30 1187.6715
767.35 1190.1421
767.40 1192.6514
767.45 1195.1934
767.50 1197.7563
767.55 1200.3291
767.60 1202.9027
767.65 1205.4570
767.70 1207.9891
767.75 1210.4819
767.80 1212.9297
767.85 1215.3176
767.90 1217.6321
767.95 1219.8638
768.00 1222.0018
768.05 1224.0071
768.10 1224.3503
768.15 1224.5823
768.20 1224.7085
768.25 1224.7347
768.30 1224.6661
768.35 1224.5084
768.40 1224.2671
768.45 1223.9480
768.50 1223.5562
768.55 1223.0969
768.60 1222.5754
768.65 1221.9987
768.70 1221.3713
768.75 1220.6990
768.80 1219.9867
768.85 1219.2383
768.90 1218.4634
768.95 1217.6643
769.00 1216.8470
769.05 1216.0181
769.10 1215.1803
769.15 1214.3428
769.20 1213.5088
769.25 1212.9412
769.30 1212.7966
769.35 1212.6621
769.40 1212.5359
769.45 1212.4164
769.50 1212.3020
769.55 1212.1907
769.60 1212.0808
769.65 1211.9705
769.70 1211.8582
769.75 1211.7419
769.80 1211.6204
769.85 1211.4918
769.90 1211.3544
769.95 1211.2059
770.00 1211.0452
770.05 1210.8704
770.10 1210.6799
770.15 1210.4720
770.20 1210.2446
770.25 1209.9962
770.30 1209.7252
770.35 1209.4302
770.40 1209.1086
770.45 1208.4978
770.50 1207.7365
770.55 1206.9491
770.60 1206.1414
770.65 1205.3152
770.70 1204.4711
770.75 1203.6118
770.80 1202.7405
770.85 1201.8589
770.90 1200.9697
770.95 1200.0764
771.00 1199.1802
771.05 1198.2836
771.10 1197.3877
771.15 1196.4972
771.20 1195.6134
771.25 1194.7396
771.30 1193.8763
771.35 1193.0266
771.40 1192.1942
771.45 1191.3793
771.50 1190.5862
771.55 1189.8171
771.60 1189.0713
771.65 1188.4377
771.70 1187.8418
771.75 1187.2773
771.80 1186.7446
771.85 1186.2455
771.90 1185.7821
771.95 1185.3552
772.00 1184.9661
772.05 1184.6160
772.10 1184.3064
772.15 1184.0394
772.20 1183.8156
772.25 1183.6367
772.30 1183.5042
772.35 1183.4187
772.40 1183.3826
772.45 1183.3969
772.50 1183.4626
772.55 1183.5817
772.60 1183.7554
772.65 1183.9846
772.70 1184.2715
772.75 1184.6163
772.80 1185.0712
772.85 1186.5554
772.90 1188.0896
772.95 1189.6658
773.00 1191.2750
773.05 1192.9061
773.10 1194.5549
773.15 1196.2052
773.20 1197.8508
773.25 1199.4851
773.30 1201.0946
773.35 1202.6736
773.40 1204.2094
773.45 1205.6929
773.50 1207.1179
773.55 1208.4724
773.60 1209.7517
773.65 1210.9399
773.70 1212.0316
773.75 1213.0171
773.80 1213.8873
773.85 1214.6339
773.90 1215.2457
773.95 1215.7141
774.00 1215.7427
774.05 1213.5823
774.10 1211.2732
774.15 1208.8414
774.20 1206.2963
774.25 1203.6533
774.30 1200.9274
774.35 1198.1334
774.40 1195.2864
774.45 1192.4012
774.50 1189.4968
774.55 1186.5842
774.60 1183.6718
774.65 1180.7882
774.70 1177.9448
774.75 1175.1499
774.80 1172.4219
774.85 1169.7725
774.90 1167.2260
774.95 1164.7881
775.00 1162.4795
775.05 1160.3123
775.10 1158.2988
775.15 1156.4587
775.20 1155.1526
775.25 1156.4868
775.30 1158.0023
775.35 1159.6909
775.40 1161.5299
775.45 1163.5121
775.50 1165.6187
775.55 1167.8373
775.60 1170.1570
775.65 1172.5583
775.70 1175.0300
775.75 1177.5544
775.80 1180.1241
775.85 1182.7217
775.90 1185.3333
775.95 1187.9415
776.00 1190.5359
776.05 1193.1018
776.10 1195.6287
776.15 1198.0964
776.20 1200.4910
776.25 1202.8043
776.30 1205.0168
776.35 1207.1223
776.40 1208.9829
776.45 1208.5767
776.50 1208.0405
776.55 1207.3842
776.60 1206.6155
776.65 1205.7458
776.70 1204.7847
776.75 1203.7388
776.80 1202.6196
776.85 1201.4343
776.90 1200.1943
776.95 1198.9072
777.00 1197.5830
777.05 1196.2303
777.10 1194.8567
777.15 1193.4761
777.20 1192.0929
777.25 1190.7197
777.30 1189.3638
777.35 1188.0309
777.40 1186.7369
777.45 1185.4878
777.50 1184.2939
777.55 1183.1615
777.60 1182.0996
777.65 1182.4796
777.70 1183.0845
777.75 1183.7585
777.80 1184.4960
777.85 1185.2913
777.90 1186.1370
777.95 1187.0269
778.00 1187.9548
778.05 1188.9133
778.10 1189.8997
778.15 1190.9027
778.20 1191.9197
778.25 1192.9420
778.30 1193.9640
778.35 1194.9813
778.40 1195.9846
778.45 1196.9690
778.50 1197.9271
778.55 1198.8547
778.60 1199.7446
778.65 1200.5901
778.70 1201.3844
778.75 1202.1219
778.80 1202.7964
778.85 1202.6953
778.90 1202.1887
778.95 1201.6187
779.00 1200.9882
779.05 1200.3033
779.10 1199.5667
779.15 1198.7832
779.20 1197.9585
779.25 1197.0957
779.30 1196.1995
779.35 1195.2738
779.40 1194.3242
779.45 1193.3519
779.50 1192.3644
779.55 1191.3660
779.60 1190.3601
779.65 1189.3508
779.70 1188.3423
779.75 1187.3368
779.80 1186.3445
779.85 1185.3647
779.90 1184.4033
779.95 1183.4655
780.00 1182.5543
780.05 1181.8452
780.10 1181.4569
780.15 1181.1022
780.20 1180.7803
780.25 1180.4910
780.30 1180.2339
780.35 1180.0085
780.40 1179.8147
780.45 1179.6523
780.50 1179.5205
780.55 1179.4194
780.60 1179.3481
780.65 1179.3068
780.70 1179.2948
780.75 1179.3116
780.80 1179.3572
780.85 1179.4314
780.90 1179.5332
780.95 1179.6628
781.00 1179.8196
781.05 1180.0031
781.10 1180.2136
781.15 1180.4501
781.20 1180.7123
781.25 1181.0000
781.30 1181.7074
781.35 1182.4374
781.40 1183.1823
781.45 1183.9402
781.50 1184.7048
781.55 1185.4731
781.60 1186.2416
781.65 1187.0038
781.70 1187.7559
781.75 1188.4950
781.80 1189.2163
781.85 1189.9148
781.90 1190.5863
781.95 1191.2273
782.00 1191.8324
782.05 1192.3979
782.10 1192.9204
782.15 1193.3932
782.20 1193.8143
782.25 1194.1787
782.30 1194.4817
782.35 1194.7201
782.40 1194.8883
782.45 1194.9827
782.50 1194.3582
782.55 1193.1289
782.60 1191.8298
782.65 1190.4728
782.70 1189.0603
782.75 1187.6033
782.80 1186.1055
782.85 1184.5764
782.90 1183.0254
782.95 1181.4559
783.00 1179.8807
783.05 1178.3020
783.10 1176.7269
783.15 1175.1667
783.20 1173.6288
783.25 1172.1166
783.30 1170.6414
783.35 1169.2069
783.40 1167.8239
783.45 1166.4980
783.50 1165.2366
783.55 1164.0470
783.60 1162.9353
783.65 1161.9117
783.70 1161.0111
783.75 1161.6384
783.80 1162.3604
783.85 1163.1691
783.90 1164.0562
783.95 1165.0154
784.00 1166.0399
784.05 1167.1207
784.10 1168.2555
784.15 1169.4324
784.20 1170.6443
784.25 1171.8856
784.30 1173.1494
784.35 1174.4312
784.40 1175.7180
784.45 1177.0042
784.50 1178.2859
784.55 1179.5542
784.60 1180.8037
784.65 1182.0227
784.70 1183.2070
784.75 1184.3513
784.80 1185.4454
784.85 1186.4850
784.90 1187.4604
784.95 1187.8594
785.00 1187.4698
785.05 1187.0128
785.10 1186.4940
785.15 1185.9182
785.20 1185.2910
785.25 1184.6169
785.30 1183.9011
785.35 1183.1472
785.40 1182.3627
785.45 1181.5511
785.50 1180.7177
785.55 1179.8684
785.60 1179.0051
785.65 1178.1370
785.70 1177.2668
785.75 1176.3999
785.80 1175.5409
785.85 1174.6938
785.90 1173.8660
785.95 1173.0609
786.00 1172.2847
786.05 1171.5405
786.10 1170.8333
786.15 1170.1705
786.20 1170.1556
786.25 1170.4089
786.30 1170.7061
786.35 1171.0439
786.40 1171.4189
786.45 1171.8275
786.50 1172.2681
786.55 1172.7362
786.60 1173.2305
786.65 1173.7455
786.70 1174.2791
786.75 1174.8287
786.80 1175.3906
786.85 1175.9629
786.90 1176.5408
786.95 1177.1211
787.00 1177.7025
787.05 1178.2804
787.10 1178.8528
787.15 1179.4163
787.20 1179.9668
787.25 1180.5023
787.30 1181.0188
787.35 1181.5150
787.40 1181.9862
787.45 1182.0002
787.50 1181.9746
787.55 1181.9237
787.60 1181.8485
787.65 1181.7510
787.70 1181.6323
787.75 1181.4932
787.80 1181.3354
787.85 1181.1593
787.90 1180.9673
787.95 1180.7603
788.00 1180.5391
788.05 1180.3052
788.10 1180.0599
788.15 1179.8044
788.20 1179.5400
788.25 1179.2681
788.30 1178.9895
788.35 1178.7053
788.40 1178.4177
788.45 1178.1272
788.50 1177.8353
788.55 1177.5432
788.60 1177.2513
788.65 1176.9878
788.70 1176.8960
788.75 1176.8065
788.80 1176.7191
788.85 1176.6326
788.90 1176.5470
788.95 1176.4611
789.00 1176.3746
789.05 1176.2866
789.10 1176.1968
789.15 1176.1038
789.20 1176.0078
789.25 1175.9077
789.30 1175.8032
789.35 1175.6935
789.40 1175.5778
789.45 1175.4556
789.50 1175.3259
789.55 1175.1887
789.60 1175.0428
789.65 1174.8879
789.70 1174.7235
789.75 1174.5486
789.80 1174.3621
789.85 1174.1647
789.90 1173.9246
789.95 1173.5620
790.00 1173.1875
790.05 1172.8018
790.10 1172.4044
790.15 1171.9985
790.20 1171.5831
790.25 1171.1594
790.30 1170.7278
790.35 1170.2892
790.40 1169.8442
790.45 1169.3943
790.50 1168.9393
790.55 1168.4802
790.60 1168.0172
790.65 1167.5520
790.70 1167.0845
790.75 1166.6163
790.80 1166.1467
790.85 1165.6768
790.90 1165.2085
790.95 1164.7419
791.00 1164.2772
791.05 1163.8154
791.10 1163.3568
791.15 1162.9572
791.20 1162.7604
791.25 1162.5664
791.30 1162.3733
791.35 1162.1792
791.40 1161.9832
791.45 1161.7830
791.50 1161.5768
791.55 1161.3630
791.60 1161.1396
791.65 1160.9055
791.70 1160.6587
791.75 1160.3977
791.80 1160.1201
791.85 1159.8247
791.90 1159.5099
791.95 1159.1740
792.00 1158.8152
792.05 1158.4316
792.10 1158.0212
792.15 1157.5831
792.20 1157.1160
792.25 1156.6167
792.30 1156.0847
792.35 1155.5167
792.40 1154.8428
792.45 1153.6982
792.50 1152.5195
792.55 1151.3091
792.60 1150.0691
792.65 1148.8051
792.70 1147.5190
792.75 1146.2156
792.80 1144.8945
792.85 1143.5608
792.90 1142.2186
792.95 1140.8699
793.00 1139.5177
793.05 1138.1648
793.10 1136.8130
793.15 1135.4683
793.20 1134.1323
793.25 1132.8098
793.30 1131.5020
793.35 1130.2090
793.40 1128.9402
793.45 1127.6953
793.50 1126.4775
793.55 1125.2900
793.60 1124.1343
793.65 1123.0164
793.70 1122.1599
793.75 1121.3459
793.80 1120.5745
793.85 1119.8441
793.90 1119.1570
793.95 1118.5143
794.00 1117.9167
794.05 1117.3652
794.10 1116.8602
794.15 1116.4031
794.20 1115.9944
794.25 1115.6357
794.30 1115.3276
794.35 1115.0701
794.40 1114.8655
794.45 1114.7141
794.50 1114.6171
794.55 1114.5748
794.60 1114.5886
794.65 1114.6594
794.70 1114.7877
794.75 1114.9749
794.80 1115.2218
794.85 1115.5293
794.90 1115.8979
794.95 1116.7434
795.00 1117.7871
795.05 1118.8859
795.10 1120.0369
795.15 1121.2317
795.20 1122.4701
795.25 1123.7451
795.30 1125.0552
795.35 1126.3950
795.40 1127.7582
795.45 1129.1422
795.50 1130.5430
795.55 1131.9563
795.60 1133.3793
795.65 1134.8029
795.70 1136.2277
795.75 1137.6462
795.80 1139.0559
795.85 1140.4561
795.90 1141.8352
795.95 1143.1930
796.00 1144.5249
796.05 1145.8269
796.10 1147.0945
796.15 1148.3235
796.20 1149.2437
796.25 1149.7742
796.30 1150.2612
796.35 1150.7074
796.40 1151.1135
796.45 1151.4800
796.50 1151.8101
796.55 1152.1045
796.60 1152.3650
796.65 1152.5928
796.70 1152.7889
796.75 1152.9554
796.80 1153.0941
796.85 1153.2059
796.90 1153.2924
796.95 1153.3550
797.00 1153.3954
797.05 1153.4149
797.10 1153.4150
797.15 1153.3972
797.20 1153.3630
797.25 1153.3138
797.30 1153.2510
797.35 1153.1761
797.40 1153.0908
797.45 1153.0074
797.50 1153.1995
797.55 1153.3826
797.60 1153.5555
797.65 1153.7166
797.70 1153.8647
797.75 1153.9988
797.80 1154.1174
797.85 1154.2197
797.90 1154.3037
797.95 1154.3684
798.00 1154.4128
798.05 1154.4353
798.10 1154.4348
798.15 1154.4102
798.20 1154.3601
798.25 1154.2831
798.30 1154.1781
798.35 1154.0437
798.40 1153.8785
798.45 1153.6819
798.50 1153.4520
798.55 1153.1882
798.60 1152.8887
798.65 1152.5524
798.70 1152.1772
798.75 1151.4276
798.80 1150.3749
798.85 1149.2903
798.90 1148.1770
798.95 1147.0385
799.00 1145.8784
799.05 1144.7053
799.10 1143.5183
799.15 1142.3242
799.20 1141.1278
799.25 1139.9324
799.30 1138.7395
799.35 1137.5586
799.40 1136.3914
799.45 1135.2422
799.50 1134.1150
799.55 1133.0159
799.60 1131.9443
799.65 1130.9092
799.70 1129.9142
799.75 1128.9626
799.80 1128.0574
799.85 1127.2041
799.90 1126.4077
799.95 1125.6716
800.00 1125.0000
