# extracted from http://envisat.esa.int/handbooks/aatsr/aux-files/consolidatedsrfs.xls
# AATSR Flight Model FPA #2 0.659um channel (AuSpace measuremets).
# Wavelength Response
629.289000 0.00000
629.549000 0.00001
629.809000 0.00003
630.068000 0.00009
630.328000 0.00021
630.588000 0.00034
630.847000 0.00042
631.107000 0.00051
631.367000 0.00067
631.626000 0.00058
631.886000 0.00072
632.146000 0.00089
632.405000 0.00101
632.665000 0.00112
632.925000 0.00116
633.185000 0.00130
633.444000 0.00160
633.704000 0.00179
633.964000 0.00191
634.223000 0.00205
634.483000 0.00223
634.743000 0.00233
635.002000 0.00257
635.262000 0.00270
635.522000 0.00317
635.781000 0.00344
636.041000 0.00368
636.301000 0.00412
636.560000 0.00442
636.820000 0.00468
637.080000 0.00515
637.339000 0.00563
637.599000 0.00596
637.859000 0.00653
638.118000 0.00701
638.378000 0.00750
638.638000 0.00812
638.897000 0.00890
639.157000 0.00980
639.417000 0.01066
639.677000 0.01168
639.936000 0.01272
640.196000 0.01400
640.456000 0.01547
640.715000 0.01687
640.975000 0.01862
641.235000 0.02077
641.494000 0.02293
641.754000 0.02518
642.014000 0.02793
642.273000 0.03134
642.533000 0.03470
642.793000 0.03864
643.052000 0.04313
643.312000 0.04835
643.572000 0.05393
643.831000 0.06026
644.091000 0.06707
644.351000 0.07489
644.610000 0.08395
644.870000 0.09315
645.130000 0.10392
645.389000 0.11581
645.649000 0.12813
645.909000 0.14275
646.169000 0.15755
646.428000 0.17432
646.688000 0.19208
646.948000 0.21188
647.207000 0.23045
647.467000 0.25370
647.727000 0.27831
647.986000 0.30596
648.246000 0.32921
648.506000 0.35895
648.765000 0.38716
649.025000 0.41832
649.285000 0.44847
649.544000 0.48226
649.804000 0.51087
650.064000 0.53991
650.323000 0.56766
650.583000 0.59197
650.843000 0.61512
651.102000 0.63926
651.362000 0.66095
651.622000 0.68246
651.881000 0.70140
652.141000 0.71982
652.401000 0.74128
652.661000 0.75814
652.920000 0.77615
653.180000 0.79392
653.440000 0.80825
653.699000 0.82689
653.959000 0.84214
654.219000 0.85312
654.478000 0.87056
654.738000 0.88013
654.998000 0.89568
655.257000 0.90863
655.517000 0.91931
655.777000 0.92943
656.036000 0.94287
656.296000 0.95232
656.556000 0.96241
656.815000 0.97159
657.075000 0.97711
657.335000 0.98220
657.594000 0.98560
657.854000 0.99326
658.114000 0.99349
658.373000 0.99731
658.633000 0.99961
658.893000 0.99981
659.153000 1.00000
659.412000 0.99628
659.672000 0.99543
659.932000 0.99232
660.191000 0.99422
660.451000 0.98959
660.711000 0.98451
660.970000 0.97942
661.230000 0.97636
661.490000 0.97270
661.749000 0.96509
662.009000 0.96218
662.269000 0.95949
662.528000 0.95265
662.788000 0.94508
663.048000 0.93997
663.307000 0.93108
663.567000 0.92955
663.827000 0.92275
664.086000 0.91927
664.346000 0.91174
664.606000 0.90703
664.865000 0.89933
665.125000 0.89028
665.385000 0.88368
665.645000 0.87385
665.904000 0.86464
666.164000 0.85302
666.424000 0.83907
666.683000 0.82434
666.943000 0.80813
667.203000 0.78836
667.462000 0.76657
667.722000 0.74592
667.982000 0.71919
668.241000 0.68978
668.501000 0.66060
668.761000 0.62891
669.020000 0.59768
669.280000 0.56704
669.540000 0.53294
669.799000 0.50115
670.059000 0.46868
670.319000 0.43685
670.578000 0.40628
670.838000 0.37381
671.098000 0.34596
671.357000 0.31746
671.617000 0.29087
671.877000 0.26639
672.137000 0.24380
672.396000 0.22156
672.656000 0.20271
672.916000 0.18387
673.175000 0.16866
673.435000 0.15268
673.695000 0.13997
673.954000 0.12734
674.214000 0.11622
674.474000 0.10560
674.733000 0.09684
674.993000 0.08884
675.253000 0.08162
675.512000 0.07536
675.772000 0.06941
676.032000 0.06453
676.291000 0.05964
676.551000 0.05519
676.811000 0.05105
677.070000 0.04749
677.330000 0.04407
677.590000 0.04082
677.849000 0.03812
678.109000 0.03537
678.369000 0.03297
678.629000 0.03084
678.888000 0.02910
679.148000 0.02732
679.408000 0.02570
679.667000 0.02426
679.927000 0.02295
680.187000 0.02156
680.446000 0.02024
680.706000 0.01914
680.966000 0.01806
681.225000 0.01695
681.485000 0.01589
681.745000 0.01520
682.004000 0.01437
682.264000 0.01351
682.524000 0.01276
682.783000 0.01213
683.043000 0.01148
683.303000 0.01091
683.562000 0.01034
683.822000 0.00995
684.082000 0.00941
684.341000 0.00884
684.601000 0.00841
684.861000 0.00798
685.121000 0.00750
685.380000 0.00709
685.640000 0.00685
685.900000 0.00653
686.159000 0.00616
686.419000 0.00571
686.679000 0.00562
686.938000 0.00528
687.198000 0.00489
687.458000 0.00473
687.717000 0.00454
687.977000 0.00427
688.237000 0.00407
688.496000 0.00391
688.756000 0.00355
689.016000 0.00341
689.275000 0.00326
689.535000 0.00312
689.795000 0.00274
690.054000 0.00259
690.314000 0.00240
690.574000 0.00232
690.833000 0.00224
691.093000 0.00213
691.353000 0.00203
691.613000 0.00187
691.872000 0.00169
692.132000 0.00161
692.392000 0.00149
692.651000 0.00134
692.911000 0.00127
693.171000 0.00115
693.430000 0.00102
693.690000 0.00093
693.950000 0.00082
694.209000 0.00085
694.469000 0.00082
694.729000 0.00062
694.988000 0.00060
695.248000 0.00057
