# extracted from http://earth.eo.esa.int/pub/ESA_DOC/MERIS_Wavelengths_and_Irradiances_Model2004.xls
# "The data contained herein correspond to the MERIS Spectral Model derived in 2004."
# "The bands definition correspond to the so-called SciHiO2 band set, used since 24 December 2002."
# Response function of nominal camera of MERIS.
657.0000 0.000000
657.1000 0.000000
657.2000 0.000000
657.3000 0.000054
657.4000 0.000098
657.5000 0.000173
657.6000 0.000303
657.7000 0.000518
657.8000 0.000870
657.9000 0.001432
658.0000 0.002313
658.1000 0.003664
658.2000 0.005695
658.3000 0.008680
658.4000 0.012977
658.5000 0.019036
658.6000 0.027387
658.7000 0.038660
658.8000 0.053528
658.9000 0.072712
659.0000 0.096929
659.1000 0.126766
659.2000 0.162721
659.3000 0.204976
659.4000 0.253469
659.5000 0.307790
659.6000 0.367034
659.7000 0.430053
659.8000 0.495225
659.9000 0.560814
660.0000 0.624991
660.1000 0.685874
660.2000 0.741957
660.3000 0.791957
660.4000 0.835164
660.5000 0.871357
660.6000 0.900741
660.7000 0.924005
660.8000 0.942051
660.9000 0.955947
661.0000 0.966718
661.1000 0.975214
661.2000 0.982076
661.3000 0.987669
661.4000 0.992150
661.5000 0.995526
661.6000 0.997751
661.7000 0.998827
661.8000 0.998860
661.9000 0.998090
662.0000 0.996867
662.1000 0.995595
662.2000 0.994648
662.3000 0.994297
662.4000 0.994647
662.5000 0.995620
662.6000 0.996977
662.7000 0.998382
662.8000 0.999482
662.9000 1.000000
663.0000 0.999801
663.1000 0.998929
663.2000 0.997591
663.3000 0.996114
663.4000 0.994856
663.5000 0.994121
663.6000 0.994086
663.7000 0.994754
663.8000 0.995952
663.9000 0.997379
664.0000 0.998674
664.1000 0.999511
664.2000 0.999674
664.3000 0.999118
664.4000 0.997973
664.5000 0.996514
664.6000 0.995098
664.7000 0.994067
664.8000 0.993671
664.9000 0.994002
665.0000 0.994971
665.1000 0.996333
665.2000 0.997745
665.3000 0.998849
665.4000 0.999367
665.5000 0.999163
665.6000 0.998281
665.7000 0.996931
665.8000 0.995443
665.9000 0.994176
666.0000 0.993439
666.1000 0.993408
666.2000 0.994085
666.3000 0.995295
666.4000 0.996733
666.5000 0.998037
666.6000 0.998878
666.7000 0.999039
666.8000 0.998475
666.9000 0.997317
667.0000 0.995842
667.1000 0.994409
667.2000 0.993359
667.3000 0.992940
667.4000 0.993234
667.5000 0.994140
667.6000 0.995388
667.7000 0.996600
667.8000 0.997367
667.9000 0.997334
668.0000 0.996259
668.1000 0.994036
668.2000 0.990669
668.3000 0.986217
668.4000 0.980684
668.5000 0.973931
668.6000 0.965604
668.7000 0.955071
668.8000 0.941480
668.9000 0.923796
669.0000 0.900934
669.1000 0.871967
669.2000 0.836176
669.3000 0.793330
669.4000 0.743622
669.5000 0.687747
669.6000 0.626978
669.7000 0.562821
669.8000 0.497166
669.9000 0.431857
670.0000 0.368648
670.1000 0.309183
670.2000 0.254630
670.3000 0.205909
670.4000 0.163444
670.5000 0.127305
670.6000 0.097315
670.7000 0.072975
670.8000 0.053698
670.9000 0.038762
671.0000 0.027443
671.1000 0.019062
671.2000 0.012984
671.3000 0.008677
671.4000 0.005688
671.5000 0.003656
671.6000 0.002305
671.7000 0.001425
671.8000 0.000865
671.9000 0.000514
672.0000 0.000300
672.1000 0.000172
672.2000 0.000000
