# extracted from http://earth.eo.esa.int/pub/ESA_DOC/MERIS_Wavelengths_and_Irradiances_Model2004.xls
# "The data contained herein correspond to the MERIS Spectral Model derived in 2004."
# "The bands definition correspond to the so-called SciHiO2 band set, used since 24 December 2002."
# Response function of nominal camera of MERIS.
674.5000 0.000000
674.6000 0.000000
674.7000 0.000000
674.8000 0.000050
674.9000 0.000092
675.0000 0.000164
675.1000 0.000288
675.2000 0.000495
675.3000 0.000834
675.4000 0.001378
675.5000 0.002234
675.6000 0.003552
675.7000 0.005539
675.8000 0.008469
675.9000 0.012700
676.0000 0.018683
676.1000 0.026951
676.2000 0.038141
676.3000 0.052932
676.4000 0.072060
676.5000 0.096253
676.6000 0.126111
676.7000 0.162148
676.8000 0.204555
676.9000 0.253276
677.0000 0.307899
677.1000 0.367509
677.2000 0.430937
677.3000 0.496532
677.4000 0.562523
677.5000 0.627047
677.6000 0.688186
677.7000 0.744410
677.8000 0.794423
677.9000 0.837513
678.0000 0.873478
678.1000 0.902552
678.2000 0.925462
678.3000 0.943152
678.4000 0.956724
678.5000 0.967231
678.6000 0.975539
678.7000 0.982287
678.8000 0.987825
678.9000 0.992287
679.0000 0.995657
679.1000 0.997865
679.2000 0.998898
679.3000 0.998858
679.4000 0.997994
679.5000 0.996669
679.6000 0.995309
679.7000 0.994305
679.8000 0.993940
679.9000 0.994321
680.0000 0.995361
680.1000 0.996805
680.2000 0.998296
680.3000 0.999458
680.4000 1.000000
680.5000 0.999782
680.6000 0.998852
680.7000 0.997432
680.8000 0.995869
680.9000 0.994542
681.0000 0.993772
681.1000 0.993746
681.2000 0.994464
681.3000 0.995742
681.4000 0.997257
681.5000 0.998630
681.6000 0.999513
681.7000 0.999683
681.8000 0.999088
681.9000 0.997871
682.0000 0.996322
682.1000 0.994818
682.2000 0.993720
682.3000 0.993285
682.4000 0.993604
682.5000 0.994568
682.6000 0.995896
682.7000 0.997193
682.8000 0.998032
682.9000 0.998048
683.0000 0.996992
683.1000 0.994764
683.2000 0.991382
683.3000 0.986922
683.4000 0.981412
683.5000 0.974727
683.6000 0.966522
683.7000 0.956161
683.8000 0.942777
683.9000 0.925310
684.0000 0.902643
684.1000 0.873818
684.2000 0.838088
684.3000 0.795202
684.4000 0.745351
684.5000 0.689233
684.6000 0.628143
684.7000 0.563612
684.8000 0.497564
684.9000 0.431874
685.0000 0.368325
685.1000 0.308581
685.2000 0.253821
685.3000 0.204971
685.4000 0.162449
685.5000 0.126316
685.6000 0.096381
685.7000 0.072132
685.8000 0.052963
685.9000 0.038145
686.0000 0.026940
686.1000 0.018665
686.2000 0.012679
686.3000 0.008449
686.4000 0.005522
686.5000 0.003538
686.6000 0.002224
686.7000 0.001370
686.8000 0.000828
686.9000 0.000491
687.0000 0.000285
687.1000 0.000163
687.2000 0.000000
