# extracted from http://earth.eo.esa.int/pub/ESA_DOC/MERIS_Wavelengths_and_Irradiances_Model2004.xls
# "The data contained herein correspond to the MERIS Spectral Model derived in 2004."
# "The bands definition correspond to the so-called SciHiO2 band set, used since 24 December 2002."
# Response function of nominal camera of MERIS.
434.9000 0.000000
435.0000 0.000000
435.1000 0.000000
435.2000 0.000000
435.3000 0.000054
435.4000 0.000099
435.5000 0.000176
435.6000 0.000307
435.7000 0.000526
435.8000 0.000883
435.9000 0.001454
436.0000 0.002349
436.1000 0.003722
436.2000 0.005784
436.3000 0.008817
436.4000 0.013181
436.5000 0.019329
436.6000 0.027800
436.7000 0.039224
436.8000 0.054289
436.9000 0.073713
437.0000 0.098195
437.1000 0.128335
437.2000 0.164600
437.3000 0.207191
437.4000 0.256002
437.5000 0.310561
437.6000 0.369983
437.7000 0.433058
437.8000 0.498202
437.9000 0.563625
438.0000 0.627459
438.1000 0.687893
438.2000 0.743409
438.3000 0.792810
438.4000 0.835386
438.5000 0.870941
438.6000 0.899750
438.7000 0.922513
438.8000 0.940163
438.9000 0.953752
439.0000 0.964289
439.1000 0.972617
439.2000 0.979348
439.3000 0.984834
439.4000 0.989217
439.5000 0.992502
439.6000 0.994655
439.7000 0.995689
439.8000 0.995727
439.9000 0.995017
440.0000 0.993911
440.1000 0.992801
440.2000 0.992044
440.3000 0.991880
440.4000 0.992390
440.5000 0.993475
440.6000 0.994886
440.7000 0.996293
440.8000 0.997362
440.9000 0.997845
441.0000 0.997639
441.1000 0.996813
441.2000 0.995589
441.3000 0.994288
441.4000 0.993251
441.5000 0.992751
441.6000 0.992928
441.7000 0.993752
441.8000 0.995033
441.9000 0.996466
442.0000 0.997708
442.1000 0.998467
442.2000 0.998570
442.3000 0.998007
442.4000 0.996935
442.5000 0.995637
442.6000 0.994453
442.7000 0.993692
442.8000 0.993559
442.9000 0.994102
443.0000 0.995199
443.1000 0.996591
443.2000 0.997947
443.3000 0.998943
443.4000 0.999347
443.5000 0.999075
443.6000 0.998210
443.7000 0.996983
443.8000 0.995717
443.9000 0.994741
444.0000 0.994314
444.1000 0.994556
444.2000 0.995420
444.3000 0.996706
444.4000 0.998107
444.5000 0.999288
444.6000 0.999971
444.7000 1.000000
444.8000 0.999383
444.9000 0.998289
445.0000 0.997004
445.1000 0.995859
445.2000 0.995147
445.3000 0.995048
445.4000 0.995582
445.5000 0.996596
445.6000 0.997797
445.7000 0.998816
445.8000 0.999277
445.9000 0.998873
446.0000 0.997407
446.1000 0.994798
446.2000 0.991039
446.3000 0.986134
446.4000 0.980002
446.5000 0.972395
446.6000 0.962840
446.7000 0.950621
446.8000 0.934829
446.9000 0.914456
447.0000 0.888523
447.1000 0.856241
447.2000 0.817117
447.3000 0.771116
447.4000 0.718681
447.5000 0.660743
447.6000 0.598670
447.7000 0.534076
447.8000 0.468794
447.9000 0.404640
448.0000 0.343283
448.1000 0.286146
448.2000 0.234256
448.3000 0.188309
448.4000 0.148609
448.5000 0.115117
448.6000 0.087525
448.7000 0.065300
448.8000 0.047806
448.9000 0.034341
449.0000 0.024203
449.1000 0.016738
449.2000 0.011355
449.3000 0.007558
449.4000 0.004935
449.5000 0.003161
449.6000 0.001987
449.7000 0.001225
449.8000 0.000741
449.9000 0.000439
450.0000 0.000256
450.1000 0.000146
450.2000 0.000000
