# extracted from http://earth.eo.esa.int/pub/ESA_DOC/MERIS_Wavelengths_and_Irradiances_Model2004.xls
# "The data contained herein correspond to the MERIS Spectral Model derived in 2004."
# "The bands definition correspond to the so-called SciHiO2 band set, used since 24 December 2002."
# Response function of nominal camera of MERIS.
502.1000 0.000000
502.2000 0.000000
502.3000 0.000000
502.4000 0.000000
502.5000 0.000059
502.6000 0.000106
502.7000 0.000185
502.8000 0.000318
502.9000 0.000537
503.0000 0.000889
503.1000 0.001445
503.2000 0.002307
503.3000 0.003615
503.4000 0.005561
503.5000 0.008399
503.6000 0.012453
503.7000 0.018129
503.8000 0.025909
503.9000 0.036360
504.0000 0.050101
504.1000 0.067789
504.2000 0.090072
504.3000 0.117527
504.4000 0.150632
504.5000 0.189650
504.6000 0.234592
504.7000 0.285161
504.8000 0.340697
504.9000 0.400249
505.0000 0.462509
505.1000 0.525942
505.2000 0.588885
505.3000 0.649648
505.4000 0.706731
505.5000 0.758838
505.6000 0.805055
505.7000 0.844892
505.8000 0.878281
505.9000 0.905577
506.0000 0.927405
506.1000 0.944594
506.2000 0.958031
506.3000 0.968549
506.4000 0.976848
506.5000 0.983433
506.6000 0.988627
506.7000 0.992599
506.8000 0.995431
506.9000 0.997189
507.0000 0.997975
507.1000 0.997966
507.2000 0.997416
507.3000 0.996632
507.4000 0.995917
507.5000 0.995520
507.6000 0.995585
507.7000 0.996123
507.8000 0.997018
507.9000 0.998059
508.0000 0.998995
508.1000 0.999597
508.2000 0.999719
508.3000 0.999335
508.4000 0.998542
508.5000 0.997541
508.6000 0.996582
508.7000 0.995906
508.8000 0.995683
508.9000 0.995971
509.0000 0.996700
509.1000 0.997691
509.2000 0.998698
509.3000 0.999474
509.4000 0.999826
509.5000 0.999671
509.6000 0.999047
509.7000 0.998113
509.8000 0.997103
509.9000 0.996269
510.0000 0.995822
510.1000 0.995874
510.2000 0.996413
510.3000 0.997308
510.4000 0.998338
510.5000 0.999248
510.6000 0.999813
510.7000 0.999895
510.8000 0.999475
510.9000 0.998660
511.0000 0.997653
511.1000 0.996708
511.2000 0.996061
511.3000 0.995874
511.4000 0.996196
511.5000 0.996948
511.6000 0.997945
511.7000 0.998939
511.8000 0.999686
511.9000 1.000000
512.0000 0.999805
512.1000 0.999150
512.2000 0.998197
512.3000 0.997182
512.4000 0.996352
512.5000 0.995906
512.6000 0.995939
512.7000 0.996414
512.8000 0.997168
512.9000 0.997940
513.0000 0.998422
513.1000 0.998315
513.2000 0.997377
513.3000 0.995443
513.4000 0.992417
513.5000 0.988238
513.6000 0.982809
513.7000 0.975931
513.8000 0.967258
513.9000 0.956238
514.0000 0.942163
514.1000 0.924180
514.2000 0.901393
514.3000 0.873030
514.4000 0.838470
514.5000 0.797487
514.6000 0.750197
514.7000 0.697132
514.8000 0.639338
514.9000 0.578073
515.0000 0.514977
515.1000 0.451687
515.2000 0.389810
515.3000 0.330916
515.4000 0.276175
515.5000 0.226578
515.6000 0.182670
515.7000 0.144672
515.8000 0.112569
515.9000 0.086018
516.0000 0.064564
516.1000 0.047590
516.2000 0.034440
516.3000 0.024477
516.4000 0.017077
516.5000 0.011701
516.6000 0.007871
516.7000 0.005197
516.8000 0.003370
516.9000 0.002145
517.0000 0.001341
517.1000 0.000823
517.2000 0.000495
517.3000 0.000293
517.4000 0.000170
517.5000 0.000000
517.6000 0.000000
