# extracted from http://earth.eo.esa.int/pub/ESA_DOC/MERIS_Wavelengths_and_Irradiances_Model2004.xls
# "The data contained herein correspond to the MERIS Spectral Model derived in 2004."
# "The bands definition correspond to the so-called SciHiO2 band set, used since 24 December 2002."
# Response function of nominal camera of MERIS.
482.2000 0.000000
482.3000 0.000000
482.4000 0.000000
482.5000 0.000000
482.6000 0.000069
482.7000 0.000123
482.8000 0.000215
482.9000 0.000368
483.0000 0.000619
483.1000 0.001022
483.2000 0.001656
483.3000 0.002633
483.4000 0.004111
483.5000 0.006300
483.6000 0.009477
483.7000 0.013995
483.8000 0.020288
483.9000 0.028869
484.0000 0.040333
484.1000 0.055322
484.2000 0.074503
484.3000 0.098518
484.4000 0.127917
484.5000 0.163131
484.6000 0.204343
484.7000 0.251466
484.8000 0.304080
484.9000 0.361396
485.0000 0.422336
485.1000 0.485475
485.2000 0.549197
485.3000 0.611794
485.4000 0.671588
485.5000 0.727139
485.6000 0.777258
485.7000 0.821176
485.8000 0.858568
485.9000 0.889530
486.0000 0.914560
486.1000 0.934390
486.2000 0.949910
486.3000 0.962019
486.4000 0.971519
486.5000 0.979049
486.6000 0.985041
486.7000 0.989746
486.8000 0.993280
486.9000 0.995700
487.0000 0.997067
487.1000 0.997506
487.2000 0.997226
487.3000 0.996511
487.4000 0.995682
487.5000 0.995037
487.6000 0.994798
487.7000 0.995064
487.8000 0.995794
487.9000 0.996823
488.0000 0.997909
488.1000 0.998789
488.2000 0.999253
488.3000 0.999191
488.4000 0.998626
488.5000 0.997703
488.6000 0.996659
488.7000 0.995758
488.8000 0.995230
488.9000 0.995212
489.0000 0.995712
489.1000 0.996611
489.2000 0.997691
489.3000 0.998687
489.4000 0.999357
489.5000 0.999539
489.6000 0.999193
489.7000 0.998411
489.8000 0.997393
489.9000 0.996396
490.0000 0.995675
490.1000 0.995414
490.2000 0.995681
490.3000 0.996417
490.4000 0.997441
490.5000 0.998504
490.6000 0.999346
490.7000 0.999763
490.8000 0.999656
490.9000 0.999056
491.0000 0.998118
491.1000 0.997081
491.2000 0.996207
491.3000 0.995718
491.4000 0.995742
491.5000 0.996276
491.6000 0.997192
491.7000 0.998266
491.8000 0.999236
491.9000 0.999865
492.0000 1.000000
492.1000 0.999613
492.2000 0.998802
492.3000 0.997773
492.4000 0.996783
492.5000 0.996074
492.6000 0.995816
492.7000 0.996056
492.8000 0.996705
492.9000 0.997549
493.0000 0.998295
493.1000 0.998625
493.2000 0.998251
493.3000 0.996959
493.4000 0.994616
493.5000 0.991151
493.6000 0.986504
493.7000 0.980555
493.8000 0.973058
493.9000 0.963591
494.0000 0.951528
494.1000 0.936081
494.2000 0.916363
494.3000 0.891496
494.4000 0.860744
494.5000 0.823608
494.6000 0.779974
494.7000 0.730150
494.8000 0.674879
494.9000 0.615325
495.0000 0.552904
495.1000 0.489279
495.2000 0.426148
495.3000 0.365124
495.4000 0.307637
495.5000 0.254779
495.6000 0.207356
495.7000 0.165806
495.8000 0.130238
495.9000 0.100485
496.0000 0.076132
496.1000 0.056642
496.2000 0.041379
496.3000 0.029680
496.4000 0.020903
496.5000 0.014452
496.6000 0.009809
496.7000 0.006536
496.8000 0.004276
496.9000 0.002746
497.0000 0.001731
497.1000 0.001071
497.2000 0.000651
497.3000 0.000388
497.4000 0.000227
497.5000 0.000131
497.6000 0.000000
