# extracted from http://envisat.esa.int/handbooks/aatsr/aux-files/consolidatedsrfs.xls
# AATSR Flight Model #2 FPA 11um channel (AuSpace measuremets).
# Wavelength Response
9820.094000 0.00000
9829.351000 0.00003
9838.608000 0.00007
9847.865000 0.00001
9857.122000 0.00009
9866.379000 0.00010
9875.636000 0.00010
9884.894000 0.00014
9894.151000 0.00017
9903.408000 0.00016
9912.665000 0.00023
9921.922000 0.00027
9931.179000 0.00027
9940.436000 0.00031
9949.693000 0.00036
9958.950000 0.00042
9968.207000 0.00053
9977.464000 0.00062
9986.722000 0.00073
9995.979000 0.00082
10005.236000 0.00089
10014.493000 0.00104
10023.750000 0.00127
10033.007000 0.00142
10042.264000 0.00167
10051.521000 0.00195
10060.778000 0.00221
10070.035000 0.00260
10079.292000 0.00296
10088.550000 0.00346
10097.807000 0.00404
10107.064000 0.00468
10116.321000 0.00535
10125.578000 0.00610
10134.835000 0.00724
10144.092000 0.00818
10153.349000 0.00932
10162.606000 0.01071
10171.863000 0.01207
10181.120000 0.01396
10190.378000 0.01606
10199.635000 0.01873
10208.892000 0.02166
10218.149000 0.02456
10227.406000 0.02796
10236.663000 0.03255
10245.920000 0.03693
10255.177000 0.04201
10264.434000 0.04786
10273.691000 0.05474
10282.948000 0.06281
10292.206000 0.07164
10301.463000 0.08190
10310.720000 0.09230
10319.977000 0.10418
10329.234000 0.11973
10338.491000 0.13601
10347.748000 0.15133
10357.005000 0.17092
10366.262000 0.18723
10375.519000 0.21139
10384.776000 0.23325
10394.033000 0.26187
10403.291000 0.28796
10412.548000 0.32007
10421.805000 0.34471
10431.062000 0.37121
10440.319000 0.39455
10449.576000 0.42635
10458.833000 0.45801
10468.090000 0.48507
10477.347000 0.52265
10486.604000 0.54747
10495.861000 0.58349
10505.119000 0.58947
10514.376000 0.61330
10523.633000 0.63098
10532.890000 0.64208
10542.147000 0.65732
10551.404000 0.67813
10560.661000 0.67675
10569.918000 0.69213
10579.175000 0.70338
10588.432000 0.71467
10597.689000 0.71886
10606.947000 0.71532
10616.204000 0.72179
10625.461000 0.74028
10634.718000 0.75550
10643.975000 0.76027
10653.232000 0.76256
10662.489000 0.76078
10671.746000 0.74976
10681.003000 0.76073
10690.260000 0.77329
10699.517000 0.79395
10708.775000 0.78467
10718.032000 0.79392
10727.289000 0.80661
10736.546000 0.80700
10745.803000 0.80241
10755.060000 0.79070
10764.317000 0.82593
10773.574000 0.79317
10782.831000 0.83245
10792.088000 0.83683
10801.345000 0.84147
10810.603000 0.85634
10819.860000 0.86205
10829.117000 0.84793
10838.374000 0.87298
10847.631000 0.89096
10856.888000 0.87220
10866.145000 0.88004
10875.402000 0.89280
10884.659000 0.90071
10893.916000 0.90773
10903.173000 0.93778
10912.431000 0.94001
10921.688000 0.94587
10930.945000 0.94865
10940.202000 0.96415
10949.459000 0.93905
10958.716000 0.94999
10967.973000 0.96369
10977.230000 0.96648
10986.487000 0.99133
10995.744000 0.99808
11005.001000 0.98830
11014.259000 0.97380
11023.516000 1.00000
11032.773000 0.97816
11042.030000 0.99398
11051.287000 0.97267
11060.544000 0.96696
11069.801000 0.95023
11079.058000 0.92800
11088.315000 0.91838
11097.572000 0.90960
11106.829000 0.88030
11116.087000 0.87993
11125.344000 0.83430
11134.601000 0.80510
11143.858000 0.78137
11153.115000 0.74665
11162.372000 0.70124
11171.629000 0.68094
11180.886000 0.62875
11190.143000 0.59834
11199.400000 0.53718
11208.657000 0.50567
11217.915000 0.47863
11227.172000 0.42706
11236.429000 0.39081
11245.686000 0.35871
11254.943000 0.33286
11264.200000 0.29806
11273.457000 0.27472
11282.714000 0.24682
11291.971000 0.22329
11301.228000 0.20708
11310.485000 0.18628
11319.742000 0.16944
11329.000000 0.15244
11338.257000 0.14110
11347.514000 0.12614
11356.771000 0.11695
11366.028000 0.10202
11375.285000 0.09094
11384.542000 0.08514
11393.799000 0.07405
11403.056000 0.07195
11412.313000 0.06139
11421.570000 0.05561
11430.828000 0.04998
11440.085000 0.04581
11449.342000 0.04250
11458.599000 0.03752
11467.856000 0.03453
11477.113000 0.03172
11486.370000 0.02870
11495.627000 0.02525
11504.884000 0.02359
11514.141000 0.02076
11523.398000 0.01907
11532.656000 0.01845
11541.913000 0.01581
11551.170000 0.01411
11560.427000 0.01285
11569.684000 0.01207
11578.941000 0.01097
11588.198000 0.00966
11597.455000 0.00871
11606.712000 0.00797
11615.969000 0.00775
11625.226000 0.00672
11634.484000 0.00618
11643.741000 0.00541
11652.998000 0.00499
11662.255000 0.00464
11671.512000 0.00436
11680.769000 0.00401
11690.026000 0.00355
11699.283000 0.00354
11708.540000 0.00316
11717.797000 0.00302
11727.054000 0.00263
11736.312000 0.00240
11745.569000 0.00232
11754.826000 0.00220
11764.083000 0.00210
11773.340000 0.00209
11782.597000 0.00186
11791.854000 0.00185
11801.111000 0.00154
11810.368000 0.00151
11819.625000 0.00156
11828.882000 0.00152
11838.140000 0.00135
11847.397000 0.00143
11856.654000 0.00134
11865.911000 0.00137
11875.168000 0.00117
11884.425000 0.00109
11893.682000 0.00097
11902.939000 0.00110
11912.196000 0.00105
11921.453000 0.00100
11930.710000 0.00085
11939.968000 0.00097
11949.225000 0.00083
11958.482000 0.00086
11967.739000 0.00079
11976.996000 0.00084
11986.253000 0.00074
11995.510000 0.00077
12004.767000 0.00074
12014.024000 0.00069
12023.281000 0.00064
12032.538000 0.00052
12041.796000 0.00066
12051.053000 0.00062
12060.310000 0.00072
12069.567000 0.00050
12078.824000 0.00050
12088.081000 0.00047
12097.338000 0.00066
12106.595000 0.00055
12115.852000 0.00077
12125.109000 0.00066
12134.366000 0.00064
12143.624000 0.00057
12152.881000 0.00048
12162.138000 0.00044
12171.395000 0.00071
