# extracted from http://earth.eo.esa.int/pub/ESA_DOC/MERIS_Wavelengths_and_Irradiances_Model2004.xls
# "The data contained herein correspond to the MERIS Spectral Model derived in 2004."
# "The bands definition correspond to the so-called SciHiO2 band set, used since 24 December 2002."
# Response function of nominal camera of MERIS.
612.0000 0.000000
612.1000 0.000000
612.2000 0.000000
612.3000 0.000055
612.4000 0.000099
612.5000 0.000174
612.6000 0.000302
612.7000 0.000514
612.8000 0.000858
612.9000 0.001405
613.0000 0.002258
613.1000 0.003561
613.2000 0.005513
613.3000 0.008373
613.4000 0.012478
613.5000 0.018255
613.6000 0.026202
613.7000 0.036918
613.8000 0.051042
613.9000 0.069265
614.0000 0.092278
614.1000 0.120662
614.2000 0.154924
614.3000 0.195283
614.4000 0.241741
614.5000 0.293979
614.6000 0.351213
614.7000 0.412429
614.8000 0.476146
614.9000 0.540754
615.0000 0.604524
615.1000 0.665631
615.2000 0.722569
615.3000 0.774000
615.4000 0.819097
615.5000 0.857490
615.6000 0.889200
615.7000 0.914743
615.8000 0.934866
615.9000 0.950525
616.0000 0.962692
616.1000 0.972220
616.2000 0.979802
616.3000 0.985888
616.4000 0.990730
616.5000 0.994427
616.6000 0.996989
616.7000 0.998444
616.8000 0.998884
616.9000 0.998508
617.0000 0.997609
617.1000 0.996542
617.2000 0.995650
617.3000 0.995205
617.4000 0.995342
617.5000 0.996043
617.6000 0.997140
617.7000 0.998361
617.8000 0.999401
617.9000 0.999999
618.0000 1.000000
618.1000 0.999398
618.2000 0.998336
618.3000 0.997072
618.4000 0.995911
618.5000 0.995136
618.6000 0.994933
618.7000 0.995346
618.8000 0.996267
618.9000 0.997461
619.0000 0.998627
619.1000 0.999469
619.2000 0.999771
619.3000 0.999452
619.4000 0.998585
619.5000 0.997377
619.6000 0.996122
619.7000 0.995124
619.8000 0.994625
619.9000 0.994743
620.0000 0.995441
620.1000 0.996542
620.2000 0.997766
620.3000 0.998803
620.4000 0.999390
620.5000 0.999374
620.6000 0.998754
620.7000 0.997675
620.8000 0.996399
620.9000 0.995235
621.0000 0.994466
621.1000 0.994277
621.2000 0.994708
621.3000 0.995646
621.4000 0.996853
621.5000 0.998023
621.6000 0.998860
621.7000 0.999149
621.8000 0.998812
621.9000 0.997925
622.0000 0.996698
622.1000 0.995428
622.2000 0.994418
622.3000 0.993904
622.4000 0.993993
622.5000 0.994633
622.6000 0.995619
622.7000 0.996636
622.8000 0.997323
622.9000 0.997345
623.0000 0.996445
623.1000 0.994479
623.2000 0.991395
623.3000 0.987194
623.4000 0.981845
623.5000 0.975199
623.6000 0.966930
623.7000 0.956471
623.8000 0.943059
623.9000 0.925753
624.0000 0.903553
624.1000 0.875582
624.2000 0.841130
624.3000 0.799917
624.4000 0.752046
624.5000 0.698081
624.6000 0.639143
624.7000 0.576590
624.8000 0.512179
624.9000 0.447662
625.0000 0.384743
625.1000 0.325065
625.2000 0.269836
625.3000 0.220056
625.4000 0.176245
625.5000 0.138581
625.6000 0.106994
625.7000 0.081076
625.8000 0.060312
625.9000 0.044035
626.0000 0.031547
626.1000 0.022183
626.2000 0.015304
626.3000 0.010363
626.4000 0.006886
626.5000 0.004489
626.6000 0.002872
626.7000 0.001802
626.8000 0.001110
626.9000 0.000671
627.0000 0.000398
627.1000 0.000232
627.2000 0.000132
627.3000 0.000000
