# extracted from http://earth.eo.esa.int/pub/ESA_DOC/MERIS_Wavelengths_and_Irradiances_Model2004.xls
# "The data contained herein correspond to the MERIS Spectral Model derived in 2004."
# "The bands definition correspond to the so-called SciHiO2 band set, used since 24 December 2002."
# Response function of nominal camera of MERIS.
700.7000 0.000000
700.8000 0.000000
700.9000 0.000000
701.0000 0.000000
701.1000 0.000059
701.2000 0.000107
701.3000 0.000191
701.4000 0.000335
701.5000 0.000574
701.6000 0.000966
701.7000 0.001593
701.8000 0.002575
701.9000 0.004082
702.0000 0.006345
702.1000 0.009669
702.2000 0.014447
702.3000 0.021171
702.4000 0.030415
702.5000 0.042857
702.6000 0.059208
702.7000 0.080221
702.8000 0.106621
702.9000 0.138974
703.0000 0.177726
703.1000 0.222963
703.2000 0.274489
703.3000 0.331726
703.4000 0.393573
703.5000 0.458689
703.6000 0.525263
703.7000 0.591420
703.8000 0.655249
703.9000 0.714865
704.0000 0.768840
704.1000 0.816056
704.2000 0.856020
704.3000 0.888768
704.4000 0.914768
704.5000 0.934932
704.6000 0.950333
704.7000 0.962121
704.8000 0.971324
704.9000 0.978727
705.0000 0.984846
705.1000 0.989905
705.2000 0.993932
705.3000 0.996838
705.4000 0.998536
705.5000 0.999040
705.6000 0.998511
705.7000 0.997269
705.8000 0.995735
705.9000 0.994363
706.0000 0.993534
706.1000 0.993475
706.2000 0.994214
706.3000 0.995573
706.4000 0.997215
706.5000 0.998733
706.6000 0.999746
706.7000 1.000000
706.8000 0.999426
706.9000 0.998161
707.0000 0.996510
707.1000 0.994877
707.2000 0.993659
707.3000 0.993152
707.4000 0.993476
707.5000 0.994546
707.6000 0.996092
707.7000 0.997726
707.8000 0.999040
707.9000 0.999701
708.0000 0.999542
708.1000 0.998595
708.2000 0.997089
708.3000 0.995389
708.4000 0.993910
708.5000 0.993012
708.6000 0.992913
708.7000 0.993630
708.8000 0.994983
708.9000 0.996630
709.0000 0.998160
709.1000 0.999189
709.2000 0.999456
709.3000 0.998890
709.4000 0.997624
709.5000 0.995965
709.6000 0.994319
709.7000 0.993085
709.8000 0.992563
709.9000 0.992878
710.0000 0.993947
710.1000 0.995499
710.2000 0.997146
710.3000 0.998476
710.4000 0.999154
710.5000 0.999006
710.6000 0.998062
710.7000 0.996550
710.8000 0.994835
710.9000 0.993333
711.0000 0.992405
711.1000 0.992268
711.2000 0.992934
711.3000 0.994209
711.4000 0.995731
711.5000 0.997051
711.6000 0.997725
711.7000 0.997410
711.8000 0.995914
711.9000 0.993206
712.0000 0.989363
712.1000 0.984498
712.2000 0.978626
712.3000 0.971567
712.4000 0.962879
712.5000 0.951809
712.6000 0.937374
712.7000 0.918430
712.8000 0.893824
712.9000 0.862636
713.0000 0.824220
713.1000 0.778495
713.2000 0.725851
713.3000 0.667208
713.4000 0.604066
713.5000 0.538118
713.6000 0.471392
713.7000 0.405798
713.8000 0.343084
713.9000 0.284822
714.0000 0.232058
714.1000 0.185552
714.2000 0.145562
714.3000 0.111996
714.4000 0.084530
714.5000 0.062559
714.6000 0.045411
714.7000 0.032324
714.8000 0.022556
714.9000 0.015436
715.0000 0.010355
715.1000 0.006813
715.2000 0.004394
715.3000 0.002778
715.4000 0.001723
715.5000 0.001047
715.6000 0.000624
715.7000 0.000365
715.8000 0.000209
715.9000 0.000000
716.0000 0.000000
