# extracted from http://earth.eo.esa.int/pub/ESA_DOC/MERIS_Wavelengths_and_Irradiances_Model2004.xls
# "The data contained herein correspond to the MERIS Spectral Model derived in 2004."
# "The bands definition correspond to the so-called SciHiO2 band set, used since 24 December 2002."
# Response function of nominal camera of MERIS.
747.0000 0.000000
747.1000 0.000000
747.2000 0.000000
747.3000 0.000000
747.4000 0.000053
747.5000 0.000098
747.6000 0.000176
747.7000 0.000311
747.8000 0.000537
747.9000 0.000910
748.0000 0.001510
748.1000 0.002458
748.2000 0.003921
748.3000 0.006131
748.4000 0.009394
748.5000 0.014110
748.6000 0.020777
748.7000 0.029982
748.8000 0.042422
748.9000 0.058829
749.0000 0.079980
749.1000 0.106627
749.2000 0.139358
749.3000 0.178636
749.4000 0.224551
749.5000 0.276895
749.6000 0.335060
749.7000 0.397895
749.8000 0.463989
749.9000 0.531454
750.0000 0.598331
750.1000 0.662635
750.2000 0.722427
750.3000 0.776253
750.4000 0.823002
750.5000 0.862229
750.6000 0.894044
750.7000 0.919013
750.8000 0.938149
750.9000 0.952619
751.0000 0.963643
751.1000 0.972286
751.2000 0.979331
751.3000 0.985263
751.4000 0.990248
751.5000 0.994247
751.6000 0.997114
751.7000 0.998719
751.8000 0.999059
751.9000 0.998310
752.0000 0.996823
752.1000 0.995069
752.2000 0.993546
752.3000 0.992665
752.4000 0.992665
752.5000 0.993557
752.6000 0.995125
752.7000 0.996982
752.8000 0.998670
752.9000 0.999767
753.0000 1.000000
753.1000 0.999308
753.2000 0.997857
753.3000 0.995999
753.4000 0.994192
753.5000 0.992875
753.6000 0.992370
753.7000 0.992797
753.8000 0.994049
753.9000 0.995811
754.0000 0.997645
754.1000 0.999095
754.2000 0.999798
754.3000 0.999576
754.4000 0.998480
754.5000 0.996775
754.6000 0.994875
754.7000 0.993244
754.8000 0.992275
754.9000 0.992197
755.0000 0.993010
755.1000 0.994489
755.2000 0.996223
755.3000 0.997719
755.4000 0.998496
755.5000 0.998197
755.6000 0.996636
755.7000 0.993812
755.8000 0.989851
755.9000 0.984911
756.0000 0.979051
756.1000 0.972109
756.2000 0.963637
756.3000 0.952848
756.4000 0.938701
756.5000 0.919981
756.6000 0.895466
756.7000 0.864177
756.8000 0.825439
756.9000 0.779166
757.0000 0.725784
757.1000 0.666267
757.2000 0.602192
757.3000 0.535335
757.4000 0.467803
757.5000 0.401568
757.6000 0.338421
757.7000 0.279950
757.8000 0.227193
757.9000 0.180887
758.0000 0.141248
758.1000 0.108138
758.2000 0.081188
758.3000 0.059748
758.4000 0.043113
758.5000 0.030496
758.6000 0.021141
758.7000 0.014368
758.8000 0.009569
758.9000 0.006248
759.0000 0.003999
759.1000 0.002508
759.2000 0.001542
759.3000 0.000929
759.4000 0.000548
759.5000 0.000317
759.6000 0.000180
759.7000 0.000000
