# extracted from http://earth.eo.esa.int/pub/ESA_DOC/MERIS_Wavelengths_and_Irradiances_Model2004.xls
# "The data contained herein correspond to the MERIS Spectral Model derived in 2004."
# "The bands definition correspond to the so-called SciHiO2 band set, used since 24 December 2002."
# Response function of nominal camera of MERIS.
405.1000 0.000000
405.2000 0.000000
405.3000 0.000000
405.4000 0.000000
405.5000 0.000052
405.6000 0.000096
405.7000 0.000173
405.8000 0.000307
405.9000 0.000534
406.0000 0.000909
406.1000 0.001516
406.2000 0.002478
406.3000 0.003966
406.4000 0.006222
406.5000 0.009563
406.6000 0.014402
406.7000 0.021252
406.8000 0.030726
406.9000 0.043536
407.0000 0.060450
407.1000 0.082256
407.2000 0.109699
407.3000 0.143385
407.4000 0.183737
407.5000 0.230840
407.6000 0.284403
407.7000 0.343697
407.8000 0.407523
407.9000 0.474334
408.0000 0.542210
408.1000 0.609081
408.2000 0.672887
408.3000 0.731755
408.4000 0.784250
408.5000 0.829405
408.6000 0.866866
408.7000 0.896868
408.8000 0.920144
408.9000 0.937799
409.0000 0.951083
409.1000 0.961223
409.2000 0.969253
409.3000 0.975902
409.4000 0.981568
409.5000 0.986348
409.6000 0.990137
409.7000 0.992763
409.8000 0.994108
409.9000 0.994206
410.0000 0.993284
410.1000 0.991742
410.2000 0.990083
410.3000 0.988800
410.4000 0.988269
410.5000 0.988668
410.6000 0.989930
410.7000 0.991769
410.8000 0.993755
410.9000 0.995419
411.0000 0.996373
411.1000 0.996406
411.2000 0.995537
411.3000 0.994011
411.4000 0.992234
411.5000 0.990675
411.6000 0.989747
411.7000 0.989706
411.8000 0.990583
411.9000 0.992184
412.0000 0.994131
412.1000 0.995964
412.2000 0.997250
412.3000 0.997695
412.4000 0.997214
412.5000 0.995954
412.6000 0.994255
412.7000 0.992567
412.8000 0.991335
412.9000 0.990890
413.0000 0.991365
413.1000 0.992664
413.2000 0.994487
413.3000 0.996400
413.4000 0.997952
413.5000 0.998781
413.6000 0.998705
413.7000 0.997771
413.8000 0.996236
413.9000 0.994510
414.0000 0.993047
414.1000 0.992235
414.2000 0.992301
414.3000 0.993248
414.4000 0.994863
414.5000 0.996766
414.6000 0.998506
414.7000 0.999673
414.8000 1.000000
414.9000 0.999432
415.0000 0.998136
415.1000 0.996459
415.2000 0.994841
415.3000 0.993706
415.4000 0.993352
415.5000 0.993877
415.6000 0.995150
415.7000 0.996839
415.8000 0.998486
415.9000 0.999606
416.0000 0.999792
416.1000 0.998785
416.2000 0.996503
416.3000 0.993008
416.4000 0.988423
416.5000 0.982821
416.6000 0.976100
416.7000 0.967894
416.8000 0.957528
416.9000 0.944037
417.0000 0.926273
417.1000 0.903047
417.2000 0.873309
417.3000 0.836343
417.4000 0.791864
417.5000 0.740174
417.6000 0.682136
417.7000 0.619123
417.8000 0.552915
417.9000 0.485454
418.0000 0.418776
418.1000 0.354760
418.2000 0.295005
418.3000 0.240740
418.4000 0.192719
418.5000 0.151319
418.6000 0.116516
418.7000 0.087972
418.8000 0.065128
418.9000 0.047266
419.0000 0.033627
419.1000 0.023451
419.2000 0.016032
419.3000 0.010744
419.4000 0.007056
419.5000 0.004543
419.6000 0.002866
419.7000 0.001773
419.8000 0.001075
419.9000 0.000638
420.0000 0.000372
420.1000 0.000212
420.2000 0.000000
420.3000 0.000000
