# MODIS AQUA relative spectral response function
# (see http://mcst.gsfc.nasa.gov/calibration/parameters)
# converted from ftp://mcst.ssaihq.com/pub/permanent/MCST/Aqua_IB_OOB_Merged_RSR
# 
# LAMBDA   RSR
# 
10000.00 0.0011200000000000
10100.00 0.0007630000000000
10200.00 0.0006010000000000
10300.00 0.0012300000000000
10400.00 0.0015500000000000
10500.00 0.0002740000000000
10600.00 0.0001710000000000
10700.00 0.0008620000000000
10800.00 0.0010300000000000
10900.00 0.0000515000000000
11000.00 0.0000671000000000
11100.00 0.0002110000000000
11200.00 0.0014900000000000
11300.00 0.0006730000000000
11400.00 0.0000532000000000
11500.00 0.0023400000000000
11600.00 0.0017100000000000
11700.00 0.0008430000000000
11800.00 0.0004210000000000
11900.00 0.0006090000000000
12000.00 0.0005980000000000
12100.00 0.0001440000000000
12200.00 0.0002440000000000
12300.00 0.0003200000000000
12400.00 0.0010900000000000
12500.00 0.0013700000000000
12600.00 0.0002180000000000
12700.00 0.0023700000000000
12800.00 0.0006580000000000
12900.00 0.0003850000000000
13000.00 0.0000102000000000
13100.00 0.0035300000000000
13200.00 0.0073100000000000
13300.00 0.0122000000000000
13349.00 0.0100000000000000
13367.00 0.0135200000000000
13387.00 0.0211300000000000
13407.00 0.0323200000000000
13427.00 0.0523000000000000
13447.00 0.0884600000000000
13467.00 0.1558900000000000
13487.00 0.2750400000000000
13506.00 0.4551300000000000
13526.00 0.6631800000000000
13546.00 0.8440100000000000
13566.00 0.9436000000000000
13586.00 0.9607599999999999
13606.00 0.9446200000000000
13626.00 0.9376700000000000
13647.00 0.9443300000000000
13666.00 0.9590000000000000
13686.00 0.9778100000000000
13706.00 0.9904600000000000
13727.00 0.9994000000000000
13747.00 1.0000000000000000
13766.00 0.9989200000000000
13786.00 0.9881000000000000
13806.00 0.9357500000000000
13827.00 0.8143899999999999
13847.00 0.6318700000000000
13866.00 0.4339100000000000
13886.00 0.2673900000000000
13907.00 0.1514500000000000
13926.00 0.0851000000000000
13946.00 0.0494200000000000
13966.00 0.0295900000000000
13986.00 0.0176400000000000
14007.00 0.0118600000000000
14017.00 0.0100000000000000
14100.00 0.0023600000000000
14200.00 0.0009620000000000
14300.00 0.0009040000000000
14400.00 0.0000564000000000
14500.00 0.0008150000000000
14600.00 0.0006400000000000
14700.00 0.0007910000000000
14800.00 0.0003320000000000
14900.00 0.0001490000000000
15000.00 0.0009080000000000
15100.00 0.0013400000000000
15200.00 0.0006880000000000
15300.00 0.0007910000000000
15400.00 0.0024200000000000
15500.00 0.0001290000000000
