# MODIS AQUA relative spectral response function
# (see http://mcst.gsfc.nasa.gov/calibration/parameters)
# converted from ftp://mcst.ssaihq.com/pub/permanent/MCST/Aqua_IB_OOB_Merged_RSR
# 
# LAMBDA   RSR
# 
 6400.00 0.0009530000000000
 6450.00 0.0039000000000000
 6499.60 0.0100000000000000
 6510.60 0.0139200000000000
 6525.50 0.0208100000000000
 6540.60 0.0279300000000000
 6555.50 0.0366400000000000
 6570.60 0.0519300000000000
 6585.50 0.0715700000000000
 6600.60 0.0980100000000000
 6615.40 0.1300400000000000
 6630.50 0.1726000000000000
 6645.50 0.2314900000000000
 6660.40 0.2968000000000000
 6675.50 0.3781800000000000
 6690.50 0.4705100000000000
 6705.40 0.5706100000000000
 6720.60 0.6887799999999999
 6735.50 0.8037400000000000
 6750.50 0.9014200000000000
 6765.60 0.9604900000000000
 6780.50 0.9881500000000000
 6795.50 1.0000000000000000
 6810.60 0.9694900000000000
 6825.50 0.8922200000000000
 6840.60 0.7726100000000000
 6855.50 0.6219900000000000
 6870.60 0.4954200000000000
 6885.60 0.3815800000000000
 6900.60 0.2898800000000000
 6915.60 0.2279000000000000
 6930.50 0.1791600000000000
 6945.50 0.1406300000000000
 6960.60 0.1139300000000000
 6975.60 0.0905800000000000
 6990.60 0.0738200000000000
 7005.50 0.0619400000000000
 7020.50 0.0523500000000000
 7035.40 0.0432900000000000
 7050.60 0.0355300000000000
 7065.50 0.0293100000000000
 7080.50 0.0247400000000000
 7095.50 0.0193300000000000
 7110.50 0.0155700000000000
 7125.60 0.0112300000000000
 7134.40 0.0100000000000000
 7150.00 0.0215000000000000
 7200.00 0.0119000000000000
 7250.00 0.0068800000000000
 7300.00 0.0051700000000000
 7350.00 0.0042000000000000
 7400.00 0.0034300000000000
 7450.00 0.0027600000000000
 7500.00 0.0021400000000000
 7550.00 0.0014700000000000
 7600.00 0.0011500000000000
 7650.00 0.0008000000000000
