# MODIS TERRA relative spectral response function
# (see http://mcst.gsfc.nasa.gov/calibration/parameters)
# converted from http://mcst.gsfc.nasa.gov/sites/mcst.gsfc/files/file_attachments/MODIS_PFM_IB_OOB_RSR_merged.xls
# 
# LAMBDA   RSR
# 
10003.00 0.0005445970000000
10104.00 0.0008645340000000
10204.00 0.0002316790000000
10303.00 0.0001985820000000
10404.00 0.0007532080000000
10503.00 0.0001012970000000
10569.00 0.0001002940000000
10593.00 0.0001897560000000
10618.00 0.0003221440000000
10642.00 0.0005964480000000
10668.00 0.0010698400000000
10692.00 0.0018318700000000
10718.00 0.0027928900000000
10743.00 0.0039945100000000
10767.00 0.0053902000000000
10793.00 0.0067278200000000
10817.00 0.0079001600000000
10843.00 0.0086973000000000
10868.00 0.0092555300000000
10892.00 0.0094023600000000
10918.00 0.0096188000000000
10942.00 0.0096993300000000
10968.00 0.0099022300000000
10993.00 0.0100294000000000
11017.00 0.0099000200000000
11043.00 0.0097135800000000
11067.00 0.0092957500000000
11093.00 0.0089155400000000
11118.00 0.0085565800000000
11142.00 0.0083261100000000
11168.00 0.0079984500000000
11192.00 0.0076135200000000
11218.00 0.0070403400000000
11243.00 0.0063028800000000
11267.00 0.0053823800000000
11293.00 0.0044195600000000
11317.00 0.0034991600000000
11343.00 0.0027336100000000
11368.00 0.0020066800000000
11392.00 0.0013993000000000
11418.00 0.0009426630000000
11442.00 0.0005982540000000
11468.00 0.0003617610000000
11493.00 0.0002233550000000
11517.00 0.0001346950000000
11538.00 0.0001002940000000
11604.00 0.0004021790000000
11704.00 0.0002166350000000
11803.00 0.0007792850000000
11904.00 0.0001925650000000
12003.00 0.0001835380000000
12104.00 0.0005536230000000
12204.00 0.0000890000000000
12303.00 0.0004041850000000
12404.00 0.0008936200000000
12503.00 0.0007181050000000
12604.00 0.0001414150000000
12704.00 0.0000682000000000
12803.00 0.0009678370000000
12873.00 0.0048146000000000
12892.00 0.0014957600000000
12913.00 0.0012179800000000
12932.00 0.0022446800000000
12953.00 0.0026268500000000
12972.00 0.0035386400000000
12993.00 0.0030879600000000
13012.00 0.0040486900000000
13032.00 0.0059520400000000
13053.00 0.0080739600000000
13072.00 0.0125065000000000
13093.00 0.0185366000000000
13112.00 0.0296694000000000
13133.00 0.0538634000000000
13152.00 0.0988522000000000
13173.00 0.1818770000000000
13192.00 0.3220950000000000
13213.00 0.5139100000000000
13232.00 0.7276650000000000
13253.00 0.9019720000000000
13272.00 0.9842060000000000
13293.00 1.0000000000000000
13312.00 0.9834850000000001
13333.00 0.9584770000000000
13352.00 0.9358430000000000
13373.00 0.9180450000000000
13392.00 0.8942120000000000
13413.00 0.8730010000000000
13432.00 0.8600410000000001
13453.00 0.8669249999999999
13472.00 0.8494910000000000
13493.00 0.7555250000000000
13512.00 0.5927160000000000
13532.00 0.4075430000000000
13553.00 0.2496260000000000
13572.00 0.1441730000000000
13593.00 0.0704962000000000
