# MODIS AQUA relative spectral response function
# (see http://mcst.gsfc.nasa.gov/calibration/parameters)
# converted from ftp://mcst.ssaihq.com/pub/permanent/MCST/Aqua_IB_OOB_Merged_RSR
# 
# LAMBDA   RSR
# 
10000.00 0.0004890000000000
10100.00 0.0003330000000000
10200.00 0.0009610000000000
10300.00 0.0004340000000000
10400.00 0.0022000000000000
10500.00 0.0015900000000000
10600.00 0.0010500000000000
10700.00 0.0025000000000000
10800.00 0.0008100000000000
10900.00 0.0006170000000000
11000.00 0.0004920000000000
11100.00 0.0015000000000000
11200.00 0.0003880000000000
11300.00 0.0013000000000000
11400.00 0.0002710000000000
11500.00 0.0021900000000000
11600.00 0.0021800000000000
11700.00 0.0016100000000000
11800.00 0.0015300000000000
11900.00 0.0005800000000000
12000.00 0.0021800000000000
12100.00 0.0023400000000000
12200.00 0.0014600000000000
12300.00 0.0011400000000000
12400.00 0.0002920000000000
12500.00 0.0002360000000000
12600.00 0.0002370000000000
12700.00 0.0033300000000000
12800.00 0.0021300000000000
12900.00 0.0015200000000000
13000.00 0.0020200000000000
13100.00 0.0011600000000000
13200.00 0.0018700000000000
13300.00 0.0008900000000000
13400.00 0.0014100000000000
13500.00 0.0072200000000000
13600.00 0.0262000000000000
13610.00 0.0100000000000000
13617.00 0.0125500000000000
13627.00 0.0150900000000000
13637.00 0.0194400000000000
13648.00 0.0243800000000000
13657.00 0.0309100000000000
13667.00 0.0412100000000000
13677.00 0.0541300000000000
13687.00 0.0725300000000000
13697.00 0.0965100000000000
13707.00 0.1315100000000000
13717.00 0.1773300000000000
13727.00 0.2406200000000000
13737.00 0.3160900000000000
13747.00 0.4041000000000000
13757.00 0.5015600000000000
13767.00 0.6068500000000000
13777.00 0.7085700000000000
13787.00 0.8036100000000000
13797.00 0.8805900000000000
13807.00 0.9406099999999999
13817.00 0.9766300000000000
13827.00 0.9963300000000000
13837.00 1.0000000000000000
13847.00 0.9992700000000000
13857.00 0.9948399999999999
13867.00 0.9924800000000000
13877.00 0.9940800000000000
13887.00 0.9927400000000000
13897.00 0.9944000000000000
13907.00 0.9980800000000000
13917.00 0.9961400000000000
13927.00 0.9980700000000000
13937.00 0.9936199999999999
13947.00 0.9907700000000000
13957.00 0.9862100000000000
13967.00 0.9869100000000000
13977.00 0.9863900000000000
13987.00 0.9867400000000000
13997.00 0.9891900000000000
14007.00 0.9903300000000000
14017.00 0.9860800000000000
14027.00 0.9742800000000000
14037.00 0.9475100000000000
14047.00 0.9059500000000000
14057.00 0.8425100000000000
14067.00 0.7621800000000000
14077.00 0.6745900000000000
14087.00 0.5703500000000000
14097.00 0.4714500000000000
14107.00 0.3784900000000000
14117.00 0.2917800000000000
14127.00 0.2209600000000000
14137.00 0.1645900000000000
14147.00 0.1211100000000000
14157.00 0.0889200000000000
14167.00 0.0667900000000000
14177.00 0.0487000000000000
14187.00 0.0368900000000000
14197.00 0.0284500000000000
14207.00 0.0209500000000000
14217.00 0.0167900000000000
14227.00 0.0129300000000000
14236.00 0.0100000000000000
14300.00 0.0022300000000000
14400.00 0.0007570000000000
14500.00 0.0008190000000000
14600.00 0.0006390000000000
14700.00 0.0011900000000000
14800.00 0.0004320000000000
14900.00 0.0011800000000000
15000.00 0.0004970000000000
15100.00 0.0001800000000000
15200.00 0.0002080000000000
15300.00 0.0001070000000000
15400.00 0.0023600000000000
15500.00 0.0013400000000000
15600.00 0.0015100000000000
15700.00 0.0019100000000000
15800.00 0.0002320000000000
15900.00 0.0002160000000000
16000.00 0.0018900000000000
