# MODIS AQUA relative spectral response function
# (see http://mcst.gsfc.nasa.gov/calibration/parameters)
# converted from ftp://mcst.ssaihq.com/pub/permanent/MCST/Aqua_IB_OOB_Merged_RSR
# 
# LAMBDA   RSR
# 
10000.00 0.0013700000000000
10100.00 0.0013500000000000
10200.00 0.0001120000000000
10300.00 0.0015600000000000
10400.00 0.0026200000000000
10500.00 0.0011700000000000
10600.00 0.0004370000000000
10700.00 0.0016800000000000
10800.00 0.0008730000000000
10900.00 0.0014300000000000
11000.00 0.0000170000000000
11100.00 0.0020400000000000
11200.00 0.0001310000000000
11300.00 0.0004990000000000
11400.00 0.0017000000000000
11500.00 0.0015700000000000
11600.00 0.0029100000000000
11700.00 0.0001450000000000
11800.00 0.0000354000000000
11900.00 0.0004620000000000
12000.00 0.0003700000000000
12100.00 0.0003700000000000
12200.00 0.0014100000000000
12300.00 0.0013600000000000
12400.00 0.0015400000000000
12500.00 0.0010400000000000
12600.00 0.0012500000000000
12700.00 0.0026300000000000
12800.00 0.0002590000000000
12900.00 0.0000890000000000
13000.00 0.0024800000000000
13100.00 0.0000702000000000
13200.00 0.0011000000000000
13300.00 0.0003510000000000
13400.00 0.0001930000000000
13500.00 0.0013300000000000
13600.00 0.0033400000000000
13700.00 0.0016300000000000
13800.00 0.0083600000000000
13883.00 0.0100000000000000
13903.00 0.0146700000000000
13923.00 0.0219700000000000
13943.00 0.0367500000000000
13963.00 0.0596700000000000
13983.00 0.0966000000000000
14003.00 0.1641000000000000
14023.00 0.2738000000000000
14042.00 0.4327400000000000
14063.00 0.6260300000000000
14083.00 0.8075800000000000
14102.00 0.9319200000000000
14123.00 0.9898300000000000
14143.00 1.0000000000000000
14163.00 0.9898700000000000
14183.00 0.9664600000000000
14203.00 0.9424900000000000
14222.00 0.9216600000000000
14243.00 0.9048900000000000
14263.00 0.8949100000000000
14283.00 0.8945500000000000
14303.00 0.8974100000000000
14323.00 0.8845200000000000
14342.00 0.8306600000000000
14363.00 0.7158200000000000
14383.00 0.5577200000000000
14403.00 0.3810000000000000
14423.00 0.2311000000000000
14443.00 0.1314100000000000
14463.00 0.0704200000000000
14483.00 0.0342200000000000
14503.00 0.0171300000000000
14521.00 0.0100000000000000
14600.00 0.0019900000000000
14700.00 0.0014000000000000
14800.00 0.0000392000000000
14900.00 0.0000398000000000
15000.00 0.0023600000000000
15100.00 0.0041600000000000
15200.00 0.0005380000000000
15300.00 0.0001280000000000
15400.00 0.0015100000000000
15500.00 0.0017200000000000
15600.00 0.0006960000000000
