# HIMAWARI8 relative spectral response function for band 5
# (see http://www.data.jma.go.jp/mscweb/en/himawari89/space_segment/spsg_ahi.html#band)
# converted from 
# http://www.data.jma.go.jp/mscweb/en/himawari89/space_segment/srf_201309/AHI-08_SpectralResponsivity.zip
# http://www.data.jma.go.jp/mscweb/en/himawari89/space_segment/srf_201310/AHI-09_SpectralResponsivity.zip
# 
# LAMBDA   RSR
# 
 1555.69 0.0009931400000000
 1555.94 0.0010284850000000
 1556.18 0.0010701990000000
 1556.42 0.0011216300000000
 1556.66 0.0011823340000000
 1556.90 0.0012431620000000
 1557.15 0.0013028080000000
 1557.39 0.0013634970000000
 1557.63 0.0014255600000000
 1557.88 0.0014881660000000
 1558.12 0.0015502160000000
 1558.36 0.0016095830000000
 1558.60 0.0016706870000000
 1558.85 0.0017368600000000
 1559.09 0.0018102910000000
 1559.33 0.0018952190000000
 1559.58 0.0019876400000000
 1559.82 0.0020873620000000
 1560.06 0.0021955360000000
 1560.31 0.0023144860000000
 1560.55 0.0024398910000000
 1560.79 0.0025720990000000
 1561.04 0.0027034190000000
 1561.28 0.0028352320000000
 1561.52 0.0029684510000000
 1561.77 0.0031029780000000
 1562.01 0.0032356480000000
 1562.26 0.0033594190000000
 1562.50 0.0034830000000000
 1562.74 0.0036092610000000
 1562.99 0.0037522970000000
 1563.23 0.0039223240000000
 1563.48 0.0041151320000000
 1563.72 0.0043242720000000
 1563.97 0.0045371710000000
 1564.21 0.0047514790000000
 1564.46 0.0049721400000000
 1564.70 0.0052031690000000
 1564.95 0.0054535380000000
 1565.19 0.0057274820000000
 1565.44 0.0060285230000000
 1565.68 0.0063483510000000
 1565.93 0.0066898090000000
 1566.17 0.0070547830000000
 1566.42 0.0074481540000000
 1566.66 0.0078614490000000
 1566.91 0.0082987760000000
 1567.15 0.0087514290000000
 1567.40 0.0092236860000000
 1567.64 0.0097182560000000
 1567.89 0.0102423170000000
 1568.14 0.0107996780000000
 1568.38 0.0113899950000000
 1568.63 0.0120194750000000
 1568.87 0.0126921100000000
 1569.12 0.0134189320000000
 1569.37 0.0142067360000000
 1569.61 0.0150494880000000
 1569.86 0.0159559240000000
 1570.11 0.0169186130000000
 1570.35 0.0179486330000000
 1570.60 0.0190595490000000
 1570.85 0.0202372680000000
 1571.09 0.0214785140000000
 1571.34 0.0227894690000000
 1571.59 0.0241917100000000
 1571.83 0.0256835750000000
 1572.08 0.0272910690000000
 1572.33 0.0290250880000000
 1572.57 0.0309025430000000
 1572.82 0.0328881150000000
 1573.07 0.0350302070000000
 1573.32 0.0373632330000000
 1573.56 0.0398913760000000
 1573.81 0.0425136640000000
 1574.06 0.0451919050000000
 1574.31 0.0479060140000000
 1574.56 0.0506927520000000
 1574.80 0.0536240520000000
 1575.05 0.0567603020000000
 1575.30 0.0601551790000000
 1575.55 0.0637620060000000
 1575.80 0.0675322290000000
 1576.04 0.0714967640000000
 1576.29 0.0757208780000000
 1576.54 0.0801310660000000
 1576.79 0.0846792920000000
 1577.04 0.0893302410000000
 1577.29 0.0940588560000000
 1577.54 0.0988844000000000
 1577.78 0.1038479710000000
 1578.03 0.1089457570000000
 1578.28 0.1141283020000000
 1578.53 0.1194828380000000
 1578.78 0.1250333660000000
 1579.03 0.1308966130000000
 1579.28 0.1372117000000000
 1579.53 0.1438349730000000
 1579.78 0.1507230340000000
 1580.03 0.1578399190000000
 1580.28 0.1651582330000000
 1580.53 0.1726634750000000
 1580.78 0.1803791210000000
 1581.03 0.1881878860000000
 1581.28 0.1961260370000000
 1581.53 0.2041820780000000
 1581.78 0.2123461610000000
 1582.03 0.2205632310000000
 1582.28 0.2288421640000000
 1582.53 0.2371958330000000
 1582.78 0.2456216290000000
 1583.03 0.2541040070000000
 1583.28 0.2626354620000000
 1583.53 0.2712410000000000
 1583.78 0.2799239880000000
 1584.03 0.2887477300000000
 1584.28 0.2977146220000000
 1584.53 0.3068192360000000
 1584.79 0.3160150610000000
 1585.04 0.3252928940000000
 1585.29 0.3346374970000000
 1585.54 0.3441187900000000
 1585.79 0.3537262580000000
 1586.04 0.3635440800000000
 1586.29 0.3736219070000000
 1586.55 0.3839105400000000
 1586.80 0.3942645050000000
 1587.05 0.4046193110000000
 1587.30 0.4149665460000000
 1587.55 0.4253548150000000
 1587.81 0.4357309960000000
 1588.06 0.4460812370000000
 1588.31 0.4563985950000000
 1588.56 0.4667046970000000
 1588.81 0.4769647010000000
 1589.07 0.4871586710000000
 1589.32 0.4972804000000000
 1589.57 0.5073739790000000
 1589.83 0.5175791430000000
 1590.08 0.5279536240000000
 1590.33 0.5385445070000000
 1590.58 0.5492437420000000
 1590.84 0.5600621620000000
 1591.09 0.5709545760000000
 1591.34 0.5819042700000000
 1591.60 0.5929517170000000
 1591.85 0.6041746710000000
 1592.10 0.6156222940000000
 1592.36 0.6274482260000001
 1592.61 0.6393723540000000
 1592.86 0.6512794370000000
 1593.12 0.6630785470000000
 1593.37 0.6748515300000000
 1593.63 0.6864729930000000
 1593.88 0.6978193480000000
 1594.13 0.7087233910000000
 1594.39 0.7192042650000000
 1594.64 0.7293985050000000
 1594.90 0.7393433330000000
 1595.15 0.7490798930000000
 1595.41 0.7586136900000000
 1595.66 0.7679374030000000
 1595.91 0.7770821280000000
 1596.17 0.7862800130000001
 1596.42 0.7954219850000001
 1596.68 0.8041265710000000
 1596.93 0.8123965319999999
 1597.19 0.8199340630000000
 1597.44 0.8268694620000000
 1597.70 0.8332433060000000
 1597.95 0.8390970160000000
 1598.21 0.8444421180000000
 1598.47 0.8492738740000000
 1598.72 0.8535235810000000
 1598.98 0.8572190110000000
 1599.23 0.8602273160000000
 1599.49 0.8628473050000000
 1599.74 0.8652059100000000
 1600.00 0.8675312070000000
 1600.26 0.8702927610000000
 1600.51 0.8728920210000000
 1600.77 0.8750752110000000
 1601.02 0.8760750990000000
 1601.28 0.8763581240000000
 1601.54 0.8765818670000000
 1601.79 0.8767814760000000
 1602.05 0.8768555980000000
 1602.31 0.8753985210000000
 1602.56 0.8730288030000000
 1602.82 0.8696673690000000
 1603.08 0.8667947580000001
 1603.33 0.8639033950000000
 1603.59 0.8610090969999999
 1603.85 0.8582413870000000
 1604.11 0.8560340780000000
 1604.36 0.8539573180000000
 1604.62 0.8522449200000000
 1604.88 0.8511378240000000
 1605.14 0.8511227560000000
 1605.39 0.8514118920000000
 1605.65 0.8517817350000000
 1605.91 0.8522302180000000
 1606.17 0.8530710000000000
 1606.43 0.8547442350000000
 1606.68 0.8573185660000000
 1606.94 0.8602554840000000
 1607.20 0.8634733630000000
 1607.46 0.8672116170000000
 1607.72 0.8715482250000000
 1607.98 0.8760662490000000
 1608.23 0.8808347050000001
 1608.49 0.8858999400000001
 1608.75 0.8912841620000000
 1609.01 0.8967669700000001
 1609.27 0.9023880430000000
 1609.53 0.9081891820000000
 1609.79 0.9141694650000000
 1610.05 0.9202849140000000
 1610.31 0.9266482020000000
 1610.57 0.9331452550000000
 1610.82 0.9397289410000000
 1611.08 0.9462145370000000
 1611.34 0.9527293650000001
 1611.60 0.9591473460000000
 1611.86 0.9654238680000000
 1612.12 0.9714071250000000
 1612.38 0.9773283650000000
 1612.64 0.9828315280000000
 1612.90 0.9877316550000000
 1613.16 0.9916940880000000
 1613.42 0.9952508700000000
 1613.68 0.9982529790000000
 1613.94 0.9999126149999999
 1614.21 0.9997172670000000
 1614.47 0.9988939999999999
 1614.73 0.9972639350000000
 1614.99 0.9953413960000000
 1615.25 0.9923275110000001
 1615.51 0.9882173550000000
 1615.77 0.9828660190000000
 1616.03 0.9772813090000000
 1616.29 0.9710249340000000
 1616.55 0.9640279930000000
 1616.81 0.9563550430000000
 1617.08 0.9484927050000000
 1617.34 0.9400792630000000
 1617.60 0.9313364620000000
 1617.86 0.9224661620000000
 1618.12 0.9140480790000000
 1618.38 0.9058283250000000
 1618.65 0.8977998380000000
 1618.91 0.8899824390000000
 1619.17 0.8825975260000000
 1619.43 0.8754929100000000
 1619.70 0.8685686410000000
 1619.96 0.8618270850000000
 1620.22 0.8553739920000000
 1620.48 0.8489989350000000
 1620.75 0.8424633660000000
 1621.01 0.8354694499999999
 1621.27 0.8273606840000000
 1621.53 0.8186893840000000
 1621.80 0.8096821050000000
 1622.06 0.8006628020000000
 1622.32 0.7918606640000000
 1622.59 0.7829877589999999
 1622.85 0.7740011500000000
 1623.11 0.7648287090000000
 1623.38 0.7554512910000000
 1623.64 0.7459896580000001
 1623.90 0.7364484019999999
 1624.17 0.7268943040000000
 1624.43 0.7173258160000000
 1624.70 0.7077538320000000
 1624.96 0.6982014890000000
 1625.22 0.6887577820000000
 1625.49 0.6793621190000000
 1625.75 0.6699551710000000
 1626.02 0.6605187630000000
 1626.28 0.6510265180000000
 1626.55 0.6414763830000000
 1626.81 0.6318433490000001
 1627.07 0.6221010990000000
 1627.34 0.6121836660000000
 1627.60 0.6021876269999999
 1627.87 0.5921332270000000
 1628.13 0.5820538420000000
 1628.40 0.5719153750000000
 1628.66 0.5617698640000000
 1628.93 0.5516350910000000
 1629.20 0.5415834450000000
 1629.46 0.5316076930000000
 1629.73 0.5215824340000000
 1629.99 0.5114844850000000
 1630.26 0.5012396630000000
 1630.52 0.4909162320000000
 1630.79 0.4804986220000000
 1631.06 0.4699671180000000
 1631.32 0.4592641100000000
 1631.59 0.4484436270000000
 1631.85 0.4376813510000000
 1632.12 0.4270377360000000
 1632.39 0.4165226500000000
 1632.65 0.4060630570000000
 1632.92 0.3956558010000000
 1633.19 0.3852459760000000
 1633.45 0.3748191500000000
 1633.72 0.3644188110000000
 1633.99 0.3540950940000000
 1634.25 0.3438088390000000
 1634.52 0.3335543290000000
 1634.79 0.3234153970000000
 1635.06 0.3135447090000000
 1635.32 0.3039271100000000
 1635.59 0.2945082090000000
 1635.86 0.2852165890000000
 1636.13 0.2760721270000000
 1636.39 0.2670665950000000
 1636.66 0.2581935960000000
 1636.93 0.2494129720000000
 1637.20 0.2407283870000000
 1637.47 0.2321563510000000
 1637.73 0.2236774620000000
 1638.00 0.2153033230000000
 1638.27 0.2069870240000000
 1638.54 0.1988129330000000
 1638.81 0.1908009600000000
 1639.08 0.1831206740000000
 1639.34 0.1757237320000000
 1639.61 0.1686044060000000
 1639.88 0.1617120090000000
 1640.15 0.1551655120000000
 1640.42 0.1488851050000000
 1640.69 0.1427799520000000
 1640.96 0.1368127800000000
 1641.23 0.1308460840000000
 1641.50 0.1249625510000000
 1641.77 0.1192394550000000
 1642.04 0.1136750310000000
 1642.31 0.1082643560000000
 1642.58 0.1030791430000000
 1642.85 0.0981283080000000
 1643.12 0.0934943180000000
 1643.39 0.0892172030000000
 1643.66 0.0851257180000000
 1643.93 0.0812325870000000
 1644.20 0.0774573350000000
 1644.47 0.0738070360000000
 1644.74 0.0703021860000000
 1645.01 0.0669413990000000
 1645.28 0.0637269870000000
 1645.55 0.0606113390000000
 1645.82 0.0576375990000000
 1646.09 0.0548397450000000
 1646.36 0.0522170710000000
 1646.63 0.0497064780000000
 1646.90 0.0472894710000000
 1647.18 0.0449415390000000
 1647.45 0.0426666250000000
 1647.72 0.0404695080000000
 1647.99 0.0383935510000000
 1648.26 0.0364204190000000
 1648.53 0.0345476620000000
 1648.80 0.0327612940000000
 1649.08 0.0311051990000000
 1649.35 0.0295607320000000
 1649.62 0.0281104560000000
 1649.89 0.0267215450000000
 1650.17 0.0254041800000000
 1650.44 0.0241435890000000
 1650.71 0.0229454040000000
 1650.98 0.0217924530000000
 1651.25 0.0206887600000000
 1651.53 0.0196329730000000
 1651.80 0.0186241780000000
 1652.07 0.0176696700000000
 1652.35 0.0167604810000000
 1652.62 0.0159003170000000
 1652.89 0.0150882930000000
 1653.17 0.0143283850000000
 1653.44 0.0136153220000000
 1653.71 0.0129455900000000
 1653.99 0.0123104600000000
 1654.26 0.0117066340000000
 1654.53 0.0111272330000000
 1654.81 0.0105954030000000
 1655.08 0.0101124970000000
 1655.36 0.0096957630000000
 1655.63 0.0093000450000000
 1655.90 0.0089150740000000
 1656.18 0.0085147730000000
 1656.45 0.0081060340000000
 1656.73 0.0077041080000000
 1657.00 0.0073213080000000
 1657.28 0.0069569690000000
 1657.55 0.0066040530000000
 1657.82 0.0062685590000000
 1658.10 0.0059626690000000
 1658.37 0.0056783440000000
 1658.65 0.0054119620000000
 1658.93 0.0051668030000000
 1659.20 0.0049468200000000
 1659.48 0.0047472230000000
 1659.75 0.0045612950000000
 1660.03 0.0043872360000000
 1660.30 0.0042309260000000
 1660.58 0.0040833230000000
 1660.85 0.0039402900000000
 1661.13 0.0037889900000000
 1661.41 0.0036320420000000
 1661.68 0.0034768670000000
 1661.96 0.0033241110000000
 1662.23 0.0031776370000000
 1662.51 0.0030363380000000
 1662.79 0.0028999990000000
 1663.06 0.0027684700000000
 1663.34 0.0026432690000000
 1663.62 0.0025221280000000
 1663.89 0.0024066480000000
 1664.17 0.0022939970000000
 1664.45 0.0021811950000000
 1664.72 0.0020769530000000
 1665.00 0.0019881610000000
 1665.28 0.0019191340000000
 1665.56 0.0018612190000000
 1665.83 0.0018016240000000
 1666.11 0.0017350640000000
 1666.39 0.0016590780000000
 1666.67 0.0015788810000000
 1666.94 0.0014994990000000
 1667.22 0.0014198080000000
 1667.50 0.0013408840000000
 1667.78 0.0012636050000000
 1668.06 0.0011920340000000
 1668.34 0.0011141600000000
 1668.61 0.0010511510000000
 1668.89 0.0010031720000000
 1669.17 0.0009981970000000
 1669.45 0.0009994330000000
 1669.73 0.0010006410000000
 1670.01 0.0010014040000000
 1670.29 0.0009971320000000
