# HIMAWARI8 relative spectral response function for band 14
# (see http://www.data.jma.go.jp/mscweb/en/himawari89/space_segment/spsg_ahi.html#band)
# converted from 
# http://www.data.jma.go.jp/mscweb/en/himawari89/space_segment/srf_201309/AHI-08_SpectralResponsivity.zip
# http://www.data.jma.go.jp/mscweb/en/himawari89/space_segment/srf_201310/AHI-09_SpectralResponsivity.zip
# 
# LAMBDA   RSR
# 
10439.50 0.0009849910000000
10440.59 0.0010018580000000
10441.68 0.0010186640000000
10442.77 0.0010349400000000
10443.86 0.0010502740000000
10444.96 0.0010643450000000
10446.05 0.0010769340000000
10447.14 0.0010931380000000
10448.23 0.0012675970000000
10449.32 0.0013185270000000
10450.41 0.0013237550000000
10451.51 0.0013282510000000
10452.60 0.0013313970000000
10453.69 0.0013336880000000
10454.78 0.0013355150000000
10455.88 0.0013371250000000
10456.97 0.0013388500000000
10458.06 0.0013411330000000
10459.16 0.0013442830000000
10460.25 0.0013483600000000
10461.35 0.0013537730000000
10462.44 0.0013604870000000
10463.53 0.0013685800000000
10464.63 0.0013780860000000
10465.72 0.0013888820000000
10466.82 0.0014006800000000
10467.92 0.0014134750000000
10469.01 0.0014270330000000
10470.11 0.0014410470000000
10471.20 0.0014554330000000
10472.30 0.0014698360000000
10473.40 0.0014843000000000
10474.49 0.0014986640000000
10475.59 0.0015129540000000
10476.69 0.0015271770000000
10477.79 0.0015413750000000
10478.89 0.0015559280000000
10479.98 0.0015709000000000
10481.08 0.0015864480000000
10482.18 0.0016029260000000
10483.28 0.0016208520000000
10484.38 0.0016401060000000
10485.48 0.0016610560000000
10486.58 0.0016840190000000
10487.68 0.0017089530000000
10488.78 0.0017361930000000
10489.88 0.0017654080000000
10490.98 0.0017968320000000
10492.08 0.0018301790000000
10493.18 0.0018651870000000
10494.28 0.0019017430000000
10495.38 0.0019395390000000
10496.48 0.0019781080000000
10497.59 0.0020172780000000
10498.69 0.0020567970000000
10499.79 0.0020961270000000
10500.89 0.0021354070000000
10502.00 0.0021741660000000
10503.10 0.0022123190000000
10504.20 0.0022497330000000
10505.31 0.0022864960000000
10506.41 0.0023224780000000
10507.51 0.0023580320000000
10508.62 0.0023931220000000
10509.72 0.0024279540000000
10510.83 0.0024627690000000
10511.93 0.0024975990000000
10513.04 0.0025327120000000
10514.14 0.0025682570000000
10515.25 0.0026041760000000
10516.35 0.0026407020000000
10517.46 0.0026777010000000
10518.57 0.0027151950000000
10519.67 0.0027529860000000
10520.78 0.0027910500000000
10521.89 0.0028289590000000
10522.99 0.0028665680000000
10524.10 0.0029037350000000
10525.21 0.0029401400000000
10526.32 0.0029756630000000
10527.42 0.0030101490000000
10528.53 0.0030433190000000
10529.64 0.0030753400000000
10530.75 0.0031059140000000
10531.86 0.0031353260000000
10532.97 0.0031635620000000
10534.08 0.0031906060000000
10535.19 0.0032170440000000
10536.30 0.0032429690000000
10537.41 0.0032685280000000
10538.52 0.0032943350000000
10539.63 0.0033204600000000
10540.74 0.0033473830000000
10541.85 0.0033752580000000
10542.96 0.0034045710000000
10544.07 0.0034353750000000
10545.19 0.0034681010000000
10546.30 0.0035027790000000
10547.41 0.0035395850000000
10548.52 0.0035786180000000
10549.64 0.0036199660000000
10550.75 0.0036636070000000
10551.86 0.0037093590000000
10552.98 0.0037576600000000
10554.09 0.0038079940000000
10555.20 0.0038604440000000
10556.32 0.0039150830000000
10557.43 0.0039715860000000
10558.55 0.0040300810000000
10559.66 0.0040906220000000
10560.78 0.0041526240000000
10561.89 0.0042162510000000
10563.01 0.0042813910000000
10564.12 0.0043479790000000
10565.24 0.0044159280000000
10566.36 0.0044850660000000
10567.47 0.0045552860000000
10568.59 0.0046265670000000
10569.71 0.0046986740000000
10570.82 0.0047716050000000
10571.94 0.0048453270000000
10573.06 0.0049194330000000
10574.18 0.0049941810000000
10575.30 0.0050692280000000
10576.41 0.0051448120000000
10577.53 0.0052209100000000
10578.65 0.0052972980000000
10579.77 0.0053739560000000
10580.89 0.0054512610000000
10582.01 0.0055289700000000
10583.13 0.0056074780000000
10584.25 0.0056867500000000
10585.37 0.0057669030000000
10586.49 0.0058483930000000
10587.61 0.0059314050000000
10588.73 0.0060160220000000
10589.85 0.0061028260000000
10590.98 0.0061918110000000
10592.10 0.0062832790000000
10593.22 0.0063773550000000
10594.34 0.0064740180000000
10595.47 0.0065734690000000
10596.59 0.0066757090000000
10597.71 0.0067802390000000
10598.83 0.0068873460000000
10599.96 0.0069967650000000
10601.08 0.0071083240000000
10602.21 0.0072218710000000
10603.33 0.0073372810000000
10604.45 0.0074540240000000
10605.58 0.0075721450000000
10606.70 0.0076909050000000
10607.83 0.0078103290000000
10608.95 0.0079302420000000
10610.08 0.0080499500000000
10611.21 0.0081701400000000
10612.33 0.0082908400000000
10613.46 0.0084117530000000
10614.58 0.0085336720000000
10615.71 0.0086559180000000
10616.84 0.0087790950000000
10617.97 0.0089033430000000
10619.09 0.0090290080000000
10620.22 0.0091564120000000
10621.35 0.0092860200000000
10622.48 0.0094179990000000
10623.61 0.0095525810000000
10624.73 0.0096901720000000
10625.86 0.0098308230000000
10626.99 0.0099747340000000
10628.12 0.0101221200000000
10629.25 0.0102728540000000
10630.38 0.0104273640000000
10631.51 0.0105851240000000
10632.64 0.0107462600000000
10633.77 0.0109105800000000
10634.90 0.0110837880000000
10636.03 0.0112746500000000
10637.17 0.0114734590000000
10638.30 0.0116755690000000
10639.43 0.0118811390000000
10640.56 0.0120895190000000
10641.69 0.0123007580000000
10642.83 0.0125142940000000
10643.96 0.0127297340000000
10645.09 0.0129474930000000
10646.23 0.0131668410000000
10647.36 0.0133883240000000
10648.49 0.0136118300000000
10649.63 0.0138374450000000
10650.76 0.0140659810000000
10651.90 0.0142969030000000
10653.03 0.0145304650000000
10654.17 0.0147670050000000
10655.30 0.0150073270000000
10656.44 0.0152511430000000
10657.57 0.0154988140000000
10658.71 0.0157505180000000
10659.84 0.0160063490000000
10660.98 0.0162667500000000
10662.12 0.0165316140000000
10663.25 0.0168011150000000
10664.39 0.0170745460000000
10665.53 0.0173522310000000
10666.67 0.0176334100000000
10667.80 0.0179190390000000
10668.94 0.0182083330000000
10670.08 0.0185001470000000
10671.22 0.0187945770000000
10672.36 0.0190916980000000
10673.50 0.0193910000000000
10674.64 0.0196932340000000
10675.78 0.0199976690000000
10676.92 0.0203047400000000
10678.06 0.0206145090000000
10679.20 0.0209268620000000
10680.34 0.0212434830000000
10681.48 0.0215632780000000
10682.62 0.0218874400000000
10683.76 0.0222188140000000
10684.90 0.0225577830000000
10686.04 0.0229044200000000
10687.19 0.0232564260000000
10688.33 0.0236147400000000
10689.47 0.0239805660000000
10690.61 0.0243529990000000
10691.76 0.0247322780000000
10692.90 0.0251168710000000
10694.04 0.0255095280000000
10695.19 0.0259075120000000
10696.33 0.0263120780000000
10697.48 0.0267239650000000
10698.62 0.0271437750000000
10699.76 0.0275699860000000
10700.91 0.0280041170000000
10702.05 0.0284470030000000
10703.20 0.0288995320000000
10704.35 0.0293634550000000
10705.49 0.0298404080000000
10706.64 0.0303301880000000
10707.78 0.0308363990000000
10708.93 0.0313590480000000
10710.08 0.0318979580000000
10711.23 0.0324583650000000
10712.37 0.0330319110000000
10713.52 0.0336028310000000
10714.67 0.0341754100000000
10715.82 0.0347640710000000
10716.96 0.0353665740000000
10718.11 0.0359820730000000
10719.26 0.0366110700000000
10720.41 0.0372516820000000
10721.56 0.0379044000000000
10722.71 0.0385695610000000
10723.86 0.0392475440000000
10725.01 0.0399406280000000
10726.16 0.0406485330000000
10727.31 0.0413800280000000
10728.46 0.0421288680000000
10729.61 0.0429045230000000
10730.77 0.0437067180000000
10731.92 0.0445098660000000
10733.07 0.0453211920000000
10734.22 0.0461680920000000
10735.37 0.0470481840000000
10736.53 0.0479666110000000
10737.68 0.0489216560000000
10738.83 0.0499187630000000
10739.98 0.0509586260000000
10741.14 0.0520382910000000
10742.29 0.0531591580000000
10743.45 0.0543181150000000
10744.60 0.0554243030000000
10745.76 0.0564756420000000
10746.91 0.0575570310000000
10748.07 0.0586667160000000
10749.22 0.0598056010000000
10750.38 0.0609807610000000
10751.53 0.0621918410000000
10752.69 0.0634410410000000
10753.84 0.0647454100000000
10755.00 0.0660409880000000
10756.16 0.0672982070000000
10757.31 0.0685924610000000
10758.47 0.0699318300000000
10759.63 0.0713215790000000
10760.79 0.0727649190000000
10761.95 0.0742631270000000
10763.10 0.0758204660000000
10764.26 0.0773176780000000
10765.42 0.0787459470000000
10766.58 0.0802234910000000
10767.74 0.0817546190000000
10768.90 0.0833253480000000
10770.06 0.0849543840000000
10771.22 0.0866228080000000
10772.38 0.0882473520000000
10773.54 0.0898218140000000
10774.70 0.0914461460000000
10775.86 0.0931136700000000
10777.02 0.0948281790000000
10778.18 0.0965927930000000
10779.35 0.0983784940000000
10780.51 0.1001547700000000
10781.67 0.1019678310000000
10782.83 0.1038340050000000
10784.00 0.1057468850000000
10785.16 0.1077089050000000
10786.32 0.1096802950000000
10787.49 0.1116339450000000
10788.65 0.1136402220000000
10789.81 0.1156937120000000
10790.98 0.1178069120000000
10792.14 0.1199111900000000
10793.31 0.1219566100000000
10794.47 0.1240109840000000
10795.64 0.1261007520000000
10796.80 0.1282314700000000
10797.97 0.1303628070000000
10799.14 0.1324511630000000
10800.30 0.1345410430000000
10801.47 0.1366603970000000
10802.64 0.1388102020000000
10803.80 0.1409988720000000
10804.97 0.1431976270000000
10806.14 0.1454236330000000
10807.31 0.1476846680000000
10808.47 0.1499785330000000
10809.64 0.1523265120000000
10810.81 0.1547406480000000
10811.98 0.1571926710000000
10813.15 0.1596874770000000
10814.32 0.1622175600000000
10815.49 0.1647818290000000
10816.66 0.1673906490000000
10817.83 0.1700399430000000
10819.00 0.1727040320000000
10820.17 0.1753619540000000
10821.34 0.1780378060000000
10822.51 0.1807573230000000
10823.68 0.1834796320000000
10824.85 0.1861836170000000
10826.03 0.1888980960000000
10827.20 0.1916425890000000
10828.37 0.1944026820000000
10829.54 0.1971602810000000
10830.72 0.1999498840000000
10831.89 0.2027747130000000
10833.06 0.2056403370000000
10834.24 0.2085644530000000
10835.41 0.2115209390000000
10836.58 0.2145258840000000
10837.76 0.2176228700000000
10838.93 0.2207865710000000
10840.11 0.2239890210000000
10841.28 0.2272772590000000
10842.46 0.2306502100000000
10843.63 0.2340660160000000
10844.81 0.2375506130000000
10845.99 0.2410891510000000
10847.16 0.2446674500000000
10848.34 0.2482791550000000
10849.52 0.2519168520000000
10850.69 0.2555995810000000
10851.87 0.2592972660000000
10853.05 0.2629999480000000
10854.23 0.2667449130000000
10855.41 0.2704873290000000
10856.58 0.2742551080000000
10857.76 0.2780589770000000
10858.94 0.2818957080000000
10860.12 0.2857662160000000
10861.30 0.2896836040000000
10862.48 0.2936688570000000
10863.66 0.2977069570000000
10864.84 0.3018106470000000
10866.02 0.3059916740000000
10867.20 0.3102545870000000
10868.38 0.3146045650000000
10869.57 0.3190161930000000
10870.75 0.3235334840000000
10871.93 0.3281148100000000
10873.11 0.3327695090000000
10874.29 0.3374934720000000
10875.48 0.3422852280000000
10876.66 0.3471599710000000
10877.84 0.3520718880000000
10879.03 0.3570214310000000
10880.21 0.3620063400000000
10881.39 0.3670372780000000
10882.58 0.3721049760000000
10883.76 0.3772022020000000
10884.95 0.3823337410000000
10886.13 0.3875016930000000
10887.32 0.3927151960000000
10888.50 0.3979602440000000
10889.69 0.4032674500000000
10890.87 0.4086188620000000
10892.06 0.4140338820000000
10893.25 0.4195061850000000
10894.43 0.4250475710000000
10895.62 0.4306766910000000
10896.81 0.4363534060000000
10897.99 0.4421116400000000
10899.18 0.4479524260000000
10900.37 0.4538637900000000
10901.56 0.4598689030000000
10902.75 0.4659046130000000
10903.94 0.4719702480000000
10905.13 0.4780804410000000
10906.31 0.4842546090000000
10907.50 0.4904759990000000
10908.69 0.4966949820000000
10909.88 0.5029697140000000
10911.07 0.5092928410000001
10912.27 0.5156285380000000
10913.46 0.5219991090000000
10914.65 0.5284140500000000
10915.84 0.5348623250000000
10917.03 0.5413429870000001
10918.22 0.5478564420000001
10919.41 0.5543946250000000
10920.61 0.5609934130000001
10921.80 0.5676510570000000
10922.99 0.5743340920000000
10924.19 0.5810689340000000
10925.38 0.5878527090000000
10926.57 0.5947381230000000
10927.77 0.6017052890000000
10928.96 0.6087298160000000
10930.16 0.6158685890000000
10931.35 0.6230746270000000
10932.55 0.6303168930000000
10933.74 0.6377182980000000
10934.94 0.6451082220000000
10936.13 0.6525407450000000
10937.33 0.6600599210000000
10938.53 0.6675623030000000
10939.72 0.6750659220000000
10940.92 0.6825686110000000
10942.12 0.6900191970000000
10943.31 0.6974086530000000
10944.51 0.7047575560000000
10945.71 0.7120032970000000
10946.91 0.7191597620000000
10948.11 0.7262546110000000
10949.30 0.7332620830000000
10950.50 0.7401641420000000
10951.70 0.7469889840000000
10952.90 0.7537401980000000
10954.10 0.7604288690000000
10955.30 0.7670925060000000
10956.50 0.7736846620000000
10957.70 0.7802263070000000
10958.90 0.7868240820000000
10960.11 0.7933230999999999
10961.31 0.7998215460000000
10962.51 0.8063725360000000
10963.71 0.8128855830000000
10964.91 0.8193515290000000
10966.11 0.8259515820000000
10967.32 0.8324005759999999
10968.52 0.8388996270000000
10969.72 0.8453970780000000
10970.93 0.8518151950000000
10972.13 0.8581765030000000
10973.33 0.8644225150000000
10974.54 0.8705616150000000
10975.74 0.8766103130000000
10976.95 0.8823973640000000
10978.15 0.8880525480000000
10979.36 0.8934630460000000
10980.56 0.8986752320000000
10981.77 0.9036747110000000
10982.98 0.9084118400000000
10984.18 0.9129977550000000
10985.39 0.9173144250000000
10986.60 0.9214478910000000
10987.80 0.9254315110000000
10989.01 0.9291726380000001
10990.22 0.9328333930000000
10991.43 0.9364002420000000
10992.63 0.9397786430000000
10993.84 0.9431077140000000
10995.05 0.9463548320000000
10996.26 0.9494648800000000
10997.47 0.9525379450000000
10998.68 0.9555524960000000
10999.89 0.9585180580000000
11001.10 0.9613191639999999
11002.31 0.9638586380000000
11003.52 0.9663156760000000
11004.73 0.9687628810000000
11005.94 0.9712011590000000
11007.15 0.9735894210000000
11008.37 0.9759405970000000
11009.58 0.9782297780000000
11010.79 0.9804136820000000
11012.00 0.9824798190000000
11013.22 0.9843636900000000
11014.43 0.9860855970000000
11015.64 0.9876404580000000
11016.86 0.9889858370000000
11018.07 0.9901776510000000
11019.28 0.9911910560000000
11020.50 0.9920417960000000
11021.71 0.9927836350000000
11022.93 0.9933955710000000
11024.14 0.9939446470000000
11025.36 0.9944365900000000
11026.57 0.9948873930000000
11027.79 0.9953253720000000
11029.01 0.9957345090000000
11030.22 0.9961349870000000
11031.44 0.9965240620000000
11032.66 0.9969152140000000
11033.87 0.9973159020000000
11035.09 0.9977368760000001
11036.31 0.9981682830000000
11037.53 0.9985907130000000
11038.75 0.9989868640000000
11039.96 0.9993417710000000
11041.18 0.9996399980000000
11042.40 0.9998533550000001
11043.62 0.9999849960000000
11044.84 0.9999732900000000
11046.06 0.9998575000000000
11047.28 0.9996317620000000
11048.50 0.9992520040000000
11049.72 0.9987793600000000
11050.94 0.9981907480000000
11052.17 0.9974964410000000
11053.39 0.9967303320000001
11054.61 0.9958988300000000
11055.83 0.9950412000000000
11057.05 0.9941673070000000
11058.28 0.9933077320000000
11059.50 0.9924791350000000
11060.72 0.9917091800000000
11061.95 0.9909902500000000
11063.17 0.9903297700000000
11064.39 0.9897695970000000
11065.62 0.9892578990000001
11066.84 0.9888320340000000
11068.07 0.9884553149999999
11069.29 0.9881108450000000
11070.52 0.9878003660000000
11071.74 0.9874853630000000
11072.97 0.9871336540000000
11074.20 0.9867258700000000
11075.42 0.9862613310000000
11076.65 0.9856979550000000
11077.88 0.9850546680000000
11079.10 0.9843296810000000
11080.33 0.9834941470000000
11081.56 0.9825812700000000
11082.79 0.9815650270000000
11084.02 0.9804851950000000
11085.25 0.9793697770000001
11086.47 0.9782372260000000
11087.70 0.9771256240000000
11088.93 0.9760786120000000
11090.16 0.9751050410000000
11091.39 0.9742179510000000
11092.62 0.9734675240000000
11093.85 0.9728170100000000
11095.08 0.9722884730000000
11096.32 0.9718914480000000
11097.55 0.9715775730000000
11098.78 0.9713536760000000
11100.01 0.9711858230000000
11101.24 0.9710606700000000
11102.48 0.9709403150000000
11103.71 0.9708087190000000
11104.94 0.9706173270000000
11106.18 0.9703257790000001
11107.41 0.9699289570000000
11108.64 0.9694095960000000
11109.88 0.9688173170000000
11111.11 0.9681191470000000
11112.35 0.9673501230000000
11113.58 0.9665517240000000
11114.82 0.9657407700000000
11116.05 0.9649536940000000
11117.29 0.9642233440000000
11118.52 0.9636083820000000
11119.76 0.9630800510000000
11121.00 0.9627383610000000
11122.23 0.9625431570000000
11123.47 0.9625055740000000
11124.71 0.9626458140000000
11125.95 0.9629222740000000
11127.18 0.9633616530000000
11128.42 0.9639011760000000
11129.66 0.9644967080000000
11130.90 0.9651264440000000
11132.14 0.9657509330000000
11133.38 0.9663151580000000
11134.62 0.9668025280000000
11135.86 0.9672204950000000
11137.10 0.9674797360000000
11138.34 0.9676577800000000
11139.58 0.9677097430000000
11140.82 0.9676473460000000
11142.06 0.9674989429999999
11143.30 0.9672732230000000
11144.54 0.9670224160000001
11145.79 0.9667653920000000
11147.03 0.9665554220000000
11148.27 0.9663965600000000
11149.51 0.9663087920000000
11150.76 0.9662986960000000
11152.00 0.9663501230000000
11153.25 0.9665379110000000
11154.49 0.9668198870000000
11155.73 0.9672395300000000
11156.98 0.9677541680000000
11158.22 0.9683306250000000
11159.47 0.9689969220000000
11160.71 0.9696868780000000
11161.96 0.9703882980000000
11163.21 0.9710655880000000
11164.45 0.9717093270000000
11165.70 0.9722801670000000
11166.95 0.9727824090000000
11168.19 0.9731786640000000
11169.44 0.9734944530000000
11170.69 0.9737213370000000
11171.94 0.9738504160000000
11173.18 0.9739294610000000
11174.43 0.9739522280000000
11175.68 0.9739365360000000
11176.93 0.9739265270000000
11178.18 0.9739305910000000
11179.43 0.9739520330000000
11180.68 0.9740339220000001
11181.93 0.9742003770000000
11183.18 0.9744260480000000
11184.43 0.9747547280000000
11185.68 0.9751565260000000
11186.93 0.9756363370000000
11188.19 0.9761752480000000
11189.44 0.9767518070000000
11190.69 0.9773585270000000
11191.94 0.9779526589999999
11193.19 0.9785243179999999
11194.45 0.9790346950000000
11195.70 0.9794860320000000
11196.95 0.9798246110000000
11198.21 0.9800656639999999
11199.46 0.9801989930000000
11200.72 0.9801961800000000
11201.97 0.9800762130000000
11203.23 0.9798130850000000
11204.48 0.9794619630000000
11205.74 0.9790195800000000
11206.99 0.9785113890000000
11208.25 0.9779898310000000
11209.51 0.9774928930000000
11210.76 0.9770593850000000
11212.02 0.9767115260000000
11213.28 0.9765081620000000
11214.53 0.9764293330000000
11215.79 0.9765094930000000
11217.05 0.9767516920000000
11218.31 0.9771321030000000
11219.57 0.9777029120000000
11220.83 0.9783868449999999
11222.09 0.9791650270000000
11223.34 0.9800062870000000
11224.60 0.9808689830000000
11225.86 0.9816967060000000
11227.12 0.9824683940000000
11228.39 0.9831330350000000
11229.65 0.9836644110000000
11230.91 0.9840892170000000
11232.17 0.9842987260000000
11233.43 0.9843765980000000
11234.69 0.9843129450000000
11235.96 0.9840915760000000
11237.22 0.9837692320000000
11238.48 0.9833736680000000
11239.74 0.9829275210000000
11241.01 0.9824865590000000
11242.27 0.9821252780000000
11243.53 0.9818413940000000
11244.80 0.9817049130000000
11246.06 0.9817046070000000
11247.33 0.9818681770000000
11248.59 0.9822248180000001
11249.86 0.9826902070000000
11251.13 0.9833208230000000
11252.39 0.9840477450000000
11253.66 0.9848682439999999
11254.92 0.9857251400000000
11256.19 0.9865798070000000
11257.46 0.9873947610000000
11258.73 0.9881346110000000
11259.99 0.9887657100000000
11261.26 0.9892460440000000
11262.53 0.9895673270000001
11263.80 0.9896838330000000
11265.07 0.9896579970000000
11266.34 0.9894963330000000
11267.61 0.9892269370000000
11268.88 0.9888991880000000
11270.15 0.9884899010000000
11271.42 0.9880866990000000
11272.69 0.9877232050000000
11273.96 0.9874317490000000
11275.23 0.9872130649999999
11276.50 0.9871180950000000
11277.77 0.9871271360000000
11279.04 0.9872665260000000
11280.32 0.9875422780000001
11281.59 0.9879171190000000
11282.86 0.9883741950000000
11284.13 0.9888885020000000
11285.41 0.9894742680000000
11286.68 0.9900719670000000
11287.96 0.9906594930000000
11289.23 0.9911951180000000
11290.50 0.9916889600000000
11291.78 0.9920652380000000
11293.05 0.9923356410000000
11294.33 0.9925103080000000
11295.61 0.9925650110000001
11296.88 0.9925472600000000
11298.16 0.9924500500000000
11299.44 0.9923075740000000
11300.71 0.9921356090000000
11301.99 0.9919790190000000
11303.27 0.9918522410000000
11304.54 0.9918031520000000
11305.82 0.9918289729999999
11307.10 0.9919450869999999
11308.38 0.9922009300000000
11309.66 0.9925134700000000
11310.94 0.9929176990000000
11312.22 0.9933782220000000
11313.50 0.9939006120000000
11314.78 0.9945005530000000
11316.06 0.9951182540000000
11317.34 0.9957058880000000
11318.62 0.9962519670000000
11319.90 0.9967156220000000
11321.18 0.9970266780000000
11322.46 0.9972169950000001
11323.75 0.9972354290000000
11325.03 0.9971080350000000
11326.31 0.9967869700000000
11327.59 0.9961716680000000
11328.88 0.9953956880000000
11330.16 0.9944898089999999
11331.44 0.9935066400000000
11332.73 0.9924550280000000
11334.01 0.9913704470000000
11335.30 0.9902848170000000
11336.58 0.9892444120000000
11337.87 0.9882822020000001
11339.15 0.9874124060000000
11340.44 0.9866936250000000
11341.73 0.9861099600000000
11343.01 0.9857343060000000
11344.30 0.9854806300000000
11345.59 0.9854018340000000
11346.87 0.9854594570000000
11348.16 0.9856183880000000
11349.45 0.9858669160000000
11350.74 0.9861505310000001
11352.03 0.9864460150000000
11353.32 0.9867351880000000
11354.60 0.9869877100000000
11355.89 0.9871504970000000
11357.18 0.9872257060000000
11358.47 0.9871905790000000
11359.76 0.9870312120000000
11361.05 0.9867664750000000
11362.35 0.9863866800000000
11363.64 0.9859389450000000
11364.93 0.9854093340000000
11366.22 0.9848417770000000
11367.51 0.9842525750000000
11368.80 0.9836688179999999
11370.10 0.9831051020000000
11371.39 0.9825896020000000
11372.68 0.9821152540000000
11373.98 0.9817246080000001
11375.27 0.9814058770000000
11376.56 0.9811441900000000
11377.86 0.9809423710000000
11379.15 0.9807741300000000
11380.45 0.9806338600000000
11381.74 0.9805501590000000
11383.04 0.9804817230000000
11384.34 0.9803683490000000
11385.63 0.9802042439999999
11386.93 0.9799476780000000
11388.22 0.9795872680000000
11389.52 0.9791229030000000
11390.82 0.9785459500000000
11392.12 0.9779036580000000
11393.41 0.9771846370000000
11394.71 0.9764102530000000
11396.01 0.9755958370000000
11397.31 0.9747514700000000
11398.61 0.9738740320000000
11399.91 0.9729957310000000
11401.21 0.9720968810000000
11402.51 0.9712544650000000
11403.81 0.9705058970000000
11405.11 0.9698231340000000
11406.41 0.9692700359999999
11407.71 0.9687816510000000
11409.01 0.9683886900000001
11410.31 0.9679983860000000
11411.62 0.9676268330000000
11412.92 0.9672776440000000
11414.22 0.9669196240000000
11415.53 0.9665269390000000
11416.83 0.9660691450000000
11418.13 0.9655343060000000
11419.44 0.9648608930000000
11420.74 0.9641006590000000
11422.04 0.9631861750000000
11423.35 0.9621598680000000
11424.65 0.9609996350000000
11425.96 0.9597247330000001
11427.27 0.9583618800000000
11428.57 0.9568664360000000
11429.88 0.9552816930000000
11431.18 0.9536006370000000
11432.49 0.9518684460000000
11433.80 0.9501652030000000
11435.11 0.9485640190000000
11436.41 0.9470534610000000
11437.72 0.9456972660000000
11439.03 0.9444828830000001
11440.34 0.9433804750000000
11441.65 0.9424205430000000
11442.96 0.9415479080000000
11444.27 0.9407757980000000
11445.58 0.9400442070000000
11446.89 0.9393352040000000
11448.20 0.9386013060000000
11449.51 0.9378231840000000
11450.82 0.9369597720000000
11452.13 0.9360222230000000
11453.44 0.9349693870000000
11454.75 0.9337824070000000
11456.07 0.9324709530000000
11457.38 0.9309778050000000
11458.69 0.9293811530000000
11460.00 0.9276010689999999
11461.32 0.9257007720000000
11462.63 0.9236923840000000
11463.95 0.9216959630000000
11465.26 0.9195912870000000
11466.57 0.9167255050000001
11467.89 0.9131705860000000
11469.21 0.9093870340000000
11470.52 0.9062050520000000
11471.84 0.9033459290000000
11473.15 0.9003899600000000
11474.47 0.8976075950000000
11475.79 0.8951418750000000
11477.10 0.8926349800000000
11478.42 0.8900905330000000
11479.74 0.8875391520000000
11481.06 0.8849433600000000
11482.37 0.8823262690000000
11483.69 0.8796362320000000
11485.01 0.8767223740000000
11486.33 0.8737255150000000
11487.65 0.8706434830000001
11488.97 0.8672995270000000
11490.29 0.8637753270000000
11491.61 0.8601039560000000
11492.93 0.8561056760000000
11494.25 0.8519254890000000
11495.57 0.8476129000000000
11496.90 0.8431291780000000
11498.22 0.8386662130000000
11499.54 0.8341676250000000
11500.86 0.8297579390000001
11502.19 0.8253381560000000
11503.51 0.8209992380000000
11504.83 0.8167264380000000
11506.16 0.8124668730000000
11507.48 0.8082406160000000
11508.80 0.8039739670000000
11510.13 0.7997286040000000
11511.45 0.7954270980000000
11512.78 0.7911177579999999
11514.10 0.7867160010000001
11515.43 0.7822235940000000
11516.76 0.7776674670000000
11518.08 0.7729692880000000
11519.41 0.7681468330000000
11520.74 0.7631292730000000
11522.06 0.7579988240000000
11523.39 0.7526502680000000
11524.72 0.7471548950000000
11526.05 0.7414521500000000
11527.38 0.7356388640000000
11528.71 0.7296595480000000
11530.04 0.7235639230000001
11531.37 0.7173107550000000
11532.70 0.7109708230000000
11534.03 0.7045442170000000
11535.36 0.6980651329999999
11536.69 0.6915496510000000
11538.02 0.6850452270000000
11539.35 0.6785987260000000
11540.68 0.6722326810000000
11542.01 0.6659106660000000
11543.35 0.6596924650000000
11544.68 0.6535468960000000
11546.01 0.6474798090000000
11547.34 0.6414893600000000
11548.68 0.6355577750000000
11550.01 0.6297048150000000
11551.35 0.6238157560000001
11552.68 0.6179434510000000
11554.02 0.6120593860000000
11555.35 0.6061801070000000
11556.69 0.6002459030000000
11558.02 0.5942255620000000
11559.36 0.5881234220000000
11560.69 0.5819067340000000
11562.03 0.5756209220000000
11563.37 0.5692042440000000
11564.70 0.5626989500000000
11566.04 0.5560970820000000
11567.38 0.5494120230000000
11568.72 0.5426172640000000
11570.06 0.5357967179999999
11571.40 0.5289115750000000
11572.73 0.5220638680000000
11574.07 0.5152048780000000
11575.41 0.5084704289999999
11576.75 0.5017650880000000
11578.09 0.4951593810000000
11579.43 0.4885915330000000
11580.78 0.4821183640000000
11582.12 0.4757312530000000
11583.46 0.4693868860000000
11584.80 0.4631109950000000
11586.14 0.4568623540000000
11587.49 0.4506902990000000
11588.83 0.4445168370000000
11590.17 0.4383744850000000
11591.52 0.4322327660000000
11592.86 0.4260988100000000
11594.20 0.4199626950000000
11595.55 0.4137806490000000
11596.89 0.4075979610000000
11598.24 0.4013549950000000
11599.58 0.3951721460000000
11600.93 0.3889555170000000
11602.27 0.3827377120000000
11603.62 0.3765231760000000
11604.97 0.3703278940000000
11606.31 0.3641841480000000
11607.66 0.3580801500000000
11609.01 0.3520523280000000
11610.36 0.3460774810000000
11611.70 0.3401806190000000
11613.05 0.3343808370000000
11614.40 0.3286561240000000
11615.75 0.3230252800000000
11617.10 0.3174974240000000
11618.45 0.3120646940000000
11619.80 0.3066961030000000
11621.15 0.3014380010000000
11622.50 0.2962117770000000
11623.85 0.2910933010000000
11625.20 0.2860465680000000
11626.56 0.2810560760000000
11627.91 0.2761354800000000
11629.26 0.2712528360000000
11630.61 0.2664318620000000
11631.96 0.2616549510000000
11633.32 0.2569030840000000
11634.67 0.2521979860000000
11636.03 0.2475431830000000
11637.38 0.2429385790000000
11638.73 0.2383607570000000
11640.09 0.2338277840000000
11641.44 0.2293230750000000
11642.80 0.2248647520000000
11644.15 0.2204552970000000
11645.51 0.2160998180000000
11646.87 0.2118062760000000
11648.22 0.2075520480000000
11649.58 0.2033693310000000
11650.94 0.1992306190000000
11652.30 0.1951778240000000
11653.65 0.1911904820000000
11655.01 0.1872725900000000
11656.37 0.1834252650000000
11657.73 0.1796487360000000
11659.09 0.1759662660000000
11660.45 0.1723483120000000
11661.81 0.1688178100000000
11663.17 0.1653812630000000
11664.53 0.1620030250000000
11665.89 0.1587136990000000
11667.25 0.1555070510000000
11668.61 0.1523511060000000
11669.97 0.1492678040000000
11671.34 0.1462582510000000
11672.70 0.1433023520000000
11674.06 0.1403936280000000
11675.42 0.1375324320000000
11676.79 0.1347223800000000
11678.15 0.1319646600000000
11679.51 0.1292483600000000
11680.88 0.1265605660000000
11682.24 0.1239258380000000
11683.61 0.1213460570000000
11684.97 0.1188005910000000
11686.34 0.1162931400000000
11687.70 0.1138346370000000
11689.07 0.1114219150000000
11690.44 0.1090767370000000
11691.80 0.1067980680000000
11693.17 0.1045663170000000
11694.54 0.1023784470000000
11695.91 0.1002504610000000
11697.27 0.0982183830000000
11698.64 0.0962388800000000
11700.01 0.0942966150000000
11701.38 0.0923894850000000
11702.75 0.0905235070000000
11704.12 0.0887118960000000
11705.49 0.0869426670000000
11706.86 0.0852045640000000
11708.23 0.0834960490000000
11709.60 0.0818268320000000
11710.97 0.0801795740000000
11712.34 0.0785109450000000
11713.72 0.0768748270000000
11715.09 0.0752741410000000
11716.46 0.0737084350000000
11717.83 0.0721755630000000
11719.21 0.0706738600000000
11720.58 0.0691957420000000
11721.96 0.0677444170000000
11723.33 0.0663236370000000
11724.70 0.0649317890000000
11726.08 0.0635659340000000
11727.45 0.0622299510000000
11728.83 0.0609277150000000
11730.21 0.0597076400000000
11731.58 0.0585617530000000
11732.96 0.0574304710000000
11734.33 0.0563184800000000
11735.71 0.0552250600000000
11737.09 0.0541506200000000
11738.47 0.0530949050000000
11739.85 0.0520579610000000
11741.22 0.0510395460000000
11742.60 0.0500209750000000
11743.98 0.0489924550000000
11745.36 0.0479819690000000
11746.74 0.0469916590000000
11748.12 0.0460220590000000
11749.50 0.0450756090000000
11750.88 0.0441499000000000
11752.26 0.0432442150000000
11753.64 0.0423618380000000
11755.03 0.0414991330000000
11756.41 0.0406529170000000
11757.79 0.0398517540000000
11759.17 0.0390848980000000
11760.56 0.0383312310000000
11761.94 0.0375931030000000
11763.32 0.0368667870000000
11764.71 0.0361535300000000
11766.09 0.0354521820000000
11767.47 0.0347629520000000
11768.86 0.0340886060000000
11770.24 0.0334273420000000
11771.63 0.0327807250000000
11773.02 0.0321494490000000
11774.40 0.0315312250000000
11775.79 0.0309278160000000
11777.18 0.0303374780000000
11778.56 0.0297567440000000
11779.95 0.0291869070000000
11781.34 0.0286295940000000
11782.73 0.0280862580000000
11784.12 0.0275555930000000
11785.50 0.0270358790000000
11786.89 0.0265280560000000
11788.28 0.0260300000000000
11789.67 0.0255412180000000
11791.06 0.0250613280000000
11792.45 0.0245896160000000
11793.84 0.0241257640000000
11795.23 0.0236704500000000
11796.63 0.0232226810000000
11798.02 0.0227824870000000
11799.41 0.0223502780000000
11800.80 0.0219250300000000
11802.20 0.0215075900000000
11803.59 0.0210976670000000
11804.98 0.0206953530000000
11806.38 0.0202998250000000
11807.77 0.0199132050000000
11809.16 0.0195419850000000
11810.56 0.0191825880000000
11811.95 0.0188305500000000
11813.35 0.0184853190000000
11814.74 0.0181473350000000
11816.14 0.0178168300000000
11817.54 0.0174925410000000
11818.93 0.0171761630000000
11820.33 0.0168667660000000
11821.73 0.0165646480000000
11823.13 0.0162694030000000
11824.52 0.0159802840000000
11825.92 0.0156978820000000
11827.32 0.0154226000000000
11828.72 0.0151540650000000
11830.12 0.0148928410000000
11831.52 0.0146377860000000
11832.92 0.0143899380000000
11834.32 0.0141484510000000
11835.72 0.0139126350000000
11837.12 0.0136835200000000
11838.52 0.0134591660000000
11839.92 0.0132403590000000
11841.33 0.0130274840000000
11842.73 0.0128189840000000
11844.13 0.0126147290000000
11845.53 0.0124142700000000
11846.94 0.0122176450000000
11848.34 0.0120248780000000
11849.75 0.0118347130000000
11851.15 0.0116470920000000
11852.55 0.0114622760000000
11853.96 0.0112791370000000
11855.36 0.0110980170000000
11856.77 0.0109191150000000
11858.18 0.0107414010000000
11859.58 0.0105651630000000
11860.99 0.0103904780000000
11862.40 0.0102162710000000
11863.80 0.0100440730000000
11865.21 0.0098732150000000
11866.62 0.0097040950000000
11868.03 0.0095373690000000
11869.44 0.0093730300000000
11870.85 0.0092113760000000
11872.25 0.0090516410000000
11873.66 0.0088942660000000
11875.07 0.0087398480000000
11876.48 0.0085882430000000
11877.90 0.0084391650000000
11879.31 0.0082930010000000
11880.72 0.0081493560000000
11882.13 0.0080082820000000
11883.54 0.0078696830000000
11884.95 0.0077337840000000
11886.37 0.0076006890000000
11887.78 0.0074701520000000
11889.19 0.0073424850000000
11890.61 0.0072178270000000
11892.02 0.0070959400000000
11893.43 0.0069777100000000
11894.85 0.0068624390000000
11896.26 0.0067504990000000
11897.68 0.0066425920000000
11899.10 0.0065375270000000
11900.51 0.0064370990000000
11901.93 0.0063399380000000
11903.34 0.0062470710000000
11904.76 0.0061592720000000
11906.18 0.0060740610000000
11907.60 0.0059934500000000
11909.02 0.0059158850000000
11910.43 0.0058410320000000
11911.85 0.0057693240000000
11913.27 0.0056990120000000
11914.69 0.0056305910000000
11916.11 0.0055632470000000
11917.53 0.0054959940000000
11918.95 0.0054286120000000
11920.37 0.0053607910000000
11921.79 0.0052910350000000
11923.21 0.0052205900000000
11924.64 0.0051480540000000
11926.06 0.0050731700000000
11927.48 0.0049975280000000
11928.90 0.0049187500000000
11930.33 0.0048393190000000
11931.75 0.0047587370000000
11933.17 0.0046767290000000
11934.60 0.0045952850000000
11936.02 0.0045134160000000
11937.45 0.0044322110000000
11938.87 0.0043525710000000
11940.30 0.0042740460000000
11941.72 0.0041974680000000
11943.15 0.0041237670000000
11944.58 0.0040521680000000
11946.00 0.0039840070000000
11947.43 0.0039185940000000
11948.86 0.0038553170000000
11950.29 0.0037955950000000
11951.72 0.0037378060000000
11953.14 0.0036827180000000
11954.57 0.0036298040000000
11956.00 0.0035784130000000
11957.43 0.0035293160000000
11958.86 0.0034810630000000
11960.29 0.0034341080000000
11961.72 0.0033884180000000
11963.15 0.0033435770000000
11964.58 0.0032998760000000
11966.02 0.0032570340000000
11967.45 0.0032155420000000
11968.88 0.0031751420000000
11970.31 0.0031361010000000
11971.75 0.0030986950000000
11973.18 0.0030625380000000
11974.61 0.0030283350000000
11976.05 0.0029954590000000
11977.48 0.0029641740000000
11978.92 0.0029345340000000
11980.35 0.0029059170000000
11981.79 0.0028785410000000
11983.22 0.0028518630000000
11984.66 0.0028251050000000
11986.10 0.0027983660000000
11987.53 0.0027712330000000
11988.97 0.0027426500000000
11990.41 0.0027133470000000
11991.85 0.0026823910000000
11993.28 0.0026491820000000
11994.72 0.0026147420000000
11996.16 0.0025776430000000
11997.60 0.0025388660000000
11999.04 0.0024983750000000
12000.48 0.0024558710000000
12001.92 0.0024129170000000
12003.36 0.0023683830000000
12004.80 0.0023237170000000
12006.24 0.0022793250000000
12007.68 0.0022351440000000
12009.13 0.0021922220000000
12010.57 0.0021507540000000
12012.01 0.0021106350000000
12013.46 0.0020730330000000
12014.90 0.0020378490000000
12016.34 0.0020045570000000
12017.79 0.0019744340000000
12019.23 0.0019464290000000
12020.68 0.0019208610000000
12022.12 0.0018976120000000
12023.57 0.0018760000000000
12025.01 0.0018565570000000
12026.46 0.0018382990000000
12027.90 0.0018214420000000
12029.35 0.0018058050000000
12030.80 0.0017907930000000
12032.25 0.0017766050000000
12033.69 0.0017629520000000
12035.14 0.0017497850000000
12036.59 0.0017369540000000
12038.04 0.0017245930000000
12039.49 0.0017128570000000
12040.94 0.0017013840000000
12042.39 0.0016905810000000
12043.84 0.0016802390000000
12045.29 0.0016702480000000
12046.74 0.0016609750000000
12048.19 0.0016520240000000
12049.64 0.0016434560000000
12051.10 0.0016352470000000
12052.55 0.0016269740000000
12054.00 0.0016187700000000
12055.46 0.0016104420000000
12056.91 0.0016015540000000
12058.36 0.0015923460000000
12059.82 0.0015825260000000
12061.27 0.0015717560000000
12062.73 0.0015606450000000
12064.18 0.0015483080000000
12065.64 0.0015353270000000
12067.09 0.0015220070000000
12068.55 0.0015077100000000
12070.01 0.0014934580000000
12071.46 0.0014792500000000
12072.92 0.0014649580000000
12074.38 0.0014511360000000
12075.84 0.0014380870000000
12077.29 0.0014258090000000
12078.75 0.0014150080000000
12080.21 0.0014050990000000
12081.67 0.0013964710000000
12083.13 0.0013893410000000
12084.59 0.0013829260000000
12086.05 0.0013778830000000
12087.51 0.0013737570000000
12088.97 0.0013699850000000
12090.44 0.0013669390000000
12091.90 0.0013638150000000
12093.36 0.0013601450000000
12094.82 0.0013563370000000
12096.29 0.0013513320000000
12097.75 0.0013450490000000
12099.21 0.0013378800000000
12100.68 0.0013288210000000
12102.14 0.0013185830000000
12103.61 0.0013066810000000
12105.07 0.0012931370000000
12106.54 0.0012785980000000
12108.00 0.0012624160000000
12109.47 0.0012456300000000
12110.94 0.0012278170000000
12112.40 0.0012091940000000
12113.87 0.0011906270000000
12115.34 0.0011716220000000
12116.81 0.0011527250000000
12118.27 0.0011339710000000
12119.74 0.0011154210000000
12121.21 0.0010971970000000
12122.68 0.0010790760000000
12124.15 0.0010592070000000
12125.62 0.0009078060000000
