# HIMAWARI8 relative spectral response function for band 13
# (see http://www.data.jma.go.jp/mscweb/en/himawari89/space_segment/spsg_ahi.html#band)
# converted from 
# http://www.data.jma.go.jp/mscweb/en/himawari89/space_segment/srf_201309/AHI-08_SpectralResponsivity.zip
# http://www.data.jma.go.jp/mscweb/en/himawari89/space_segment/srf_201310/AHI-09_SpectralResponsivity.zip
# 
# LAMBDA   RSR
# 
 9972.08 0.0009358450000000
 9973.07 0.0012239220000000
 9974.07 0.0012416060000000
 9975.06 0.0012608020000000
 9976.06 0.0012798740000000
 9977.05 0.0012988620000000
 9978.05 0.0013177560000000
 9979.04 0.0013363630000000
 9980.04 0.0013548800000000
 9981.04 0.0013734110000000
 9982.03 0.0013919540000000
 9983.03 0.0014105150000000
 9984.03 0.0014293810000000
 9985.02 0.0014484500000000
 9986.02 0.0014680140000000
 9987.02 0.0014878660000000
 9988.01 0.0015083080000000
 9989.01 0.0015293330000000
 9990.01 0.0015508340000000
 9991.01 0.0015728940000000
 9992.01 0.0015953830000000
 9993.00 0.0016183360000000
 9994.00 0.0016415750000000
 9995.00 0.0016652150000000
 9996.00 0.0016888910000000
 9997.00 0.0017127210000000
 9998.00 0.0017366200000000
 9999.00 0.0017604050000000
10000.00 0.0017841980000000
10001.00 0.0018079880000000
10002.00 0.0018316600000000
10003.00 0.0018552230000000
10004.00 0.0018788790000000
10005.00 0.0019026370000000
10006.00 0.0019267020000000
10007.00 0.0019510870000000
10008.01 0.0019759960000000
10009.01 0.0020015390000000
10010.01 0.0020279200000000
10011.01 0.0020553880000000
10012.01 0.0020838720000000
10013.02 0.0021135800000000
10014.02 0.0021445010000000
10015.02 0.0021768500000000
10016.03 0.0022106250000000
10017.03 0.0022460320000000
10018.03 0.0022829810000000
10019.04 0.0023215510000000
10020.04 0.0023617680000000
10021.04 0.0024038170000000
10022.05 0.0024475890000000
10023.05 0.0024930950000000
10024.06 0.0025403370000000
10025.06 0.0025896110000000
10026.07 0.0026408180000000
10027.07 0.0026938580000000
10028.08 0.0027490420000000
10029.08 0.0028064730000000
10030.09 0.0028662730000000
10031.10 0.0029282550000000
10032.10 0.0029925040000000
10033.11 0.0030592840000000
10034.12 0.0031286700000000
10035.12 0.0032005190000000
10036.13 0.0032749470000000
10037.14 0.0033520260000000
10038.14 0.0034316760000000
10039.15 0.0035139620000000
10040.16 0.0035988480000000
10041.17 0.0036862120000000
10042.18 0.0037760650000000
10043.19 0.0038683620000000
10044.19 0.0039630190000000
10045.20 0.0040600340000000
10046.21 0.0041594040000000
10047.22 0.0042610870000000
10048.23 0.0043653220000000
10049.24 0.0044717480000000
10050.25 0.0045803710000000
10051.26 0.0046912290000000
10052.27 0.0048047050000000
10053.28 0.0049205430000000
10054.29 0.0050390680000000
10055.30 0.0051603110000000
10056.32 0.0052844920000000
10057.33 0.0054116860000000
10058.34 0.0055422670000000
10059.35 0.0056763270000000
10060.36 0.0058141000000000
10061.37 0.0059556490000000
10062.39 0.0061014520000000
10063.40 0.0062519680000000
10064.41 0.0064071320000000
10065.43 0.0065673340000000
10066.44 0.0067329790000000
10067.45 0.0069044470000000
10068.47 0.0070822440000000
10069.48 0.0072662830000000
10070.49 0.0074569050000000
10071.51 0.0076549790000000
10072.52 0.0078606760000000
10073.54 0.0080745310000000
10074.55 0.0082966840000000
10075.57 0.0085277340000000
10076.58 0.0087675700000000
10077.60 0.0090171090000000
10078.61 0.0092774020000000
10079.63 0.0095517050000000
10080.65 0.0098389390000000
10081.66 0.0101375140000000
10082.68 0.0104472810000000
10083.69 0.0107699720000000
10084.71 0.0111048740000000
10085.73 0.0114525910000000
10086.75 0.0118157300000000
10087.76 0.0121917770000000
10088.78 0.0125815290000000
10089.80 0.0129862550000000
10090.82 0.0134063370000000
10091.84 0.0138426200000000
10092.85 0.0142951710000000
10093.87 0.0147651760000000
10094.89 0.0152530480000000
10095.91 0.0157593470000000
10096.93 0.0162847990000000
10097.95 0.0168301070000000
10098.97 0.0173963860000000
10099.99 0.0179839160000000
10101.01 0.0185920210000000
10102.03 0.0192201490000000
10103.05 0.0198697540000000
10104.07 0.0205432660000000
10105.09 0.0212428380000000
10106.11 0.0219679760000000
10107.14 0.0227201300000000
10108.16 0.0234996790000000
10109.18 0.0243089810000000
10110.20 0.0251507610000000
10111.22 0.0260255740000000
10112.25 0.0269347990000000
10113.27 0.0278818330000000
10114.29 0.0288853130000000
10115.31 0.0299543140000000
10116.34 0.0310753860000000
10117.36 0.0322453830000000
10118.39 0.0334677500000000
10119.41 0.0347457180000000
10120.43 0.0360832410000000
10121.46 0.0374783490000000
10122.48 0.0389292390000000
10123.51 0.0404394070000000
10124.53 0.0420187120000000
10125.56 0.0436725830000000
10126.58 0.0454040690000000
10127.61 0.0471996330000000
10128.63 0.0490389460000000
10129.66 0.0509375290000000
10130.69 0.0529180670000000
10131.71 0.0549794260000000
10132.74 0.0571325790000000
10133.77 0.0594020870000000
10134.79 0.0617759270000000
10135.82 0.0642561280000000
10136.85 0.0668431360000000
10137.88 0.0695998830000000
10138.90 0.0724867270000000
10139.93 0.0755058940000000
10140.96 0.0786889240000000
10141.99 0.0820251090000000
10143.02 0.0855161730000000
10144.05 0.0891540060000000
10145.07 0.0929588820000000
10146.10 0.0969038410000000
10147.13 0.1009879160000000
10148.16 0.1052421570000000
10149.19 0.1096428610000000
10150.22 0.1142236120000000
10151.25 0.1189699940000000
10152.28 0.1238967850000000
10153.32 0.1289908340000000
10154.35 0.1342833240000000
10155.38 0.1397939580000000
10156.41 0.1455221450000000
10157.44 0.1514800950000000
10158.47 0.1576654280000000
10159.50 0.1640668540000000
10160.54 0.1706988020000000
10161.57 0.1775919950000000
10162.60 0.1847534130000000
10163.63 0.1922018740000000
10164.67 0.1999214230000000
10165.70 0.2078718050000000
10166.73 0.2160583790000000
10167.77 0.2245153800000000
10168.80 0.2332258000000000
10169.84 0.2421717020000000
10170.87 0.2513758190000000
10171.91 0.2608238290000000
10172.94 0.2704953810000000
10173.97 0.2803960830000000
10175.01 0.2905182400000000
10176.05 0.3008674010000000
10177.08 0.3114400780000000
10178.12 0.3222134700000000
10179.15 0.3331656490000000
10180.19 0.3443113460000000
10181.23 0.3556240700000000
10182.26 0.3671124110000000
10183.30 0.3787838570000000
10184.34 0.3906021090000000
10185.37 0.4025796030000000
10186.41 0.4147018170000000
10187.45 0.4269595920000000
10188.49 0.4393716880000000
10189.53 0.4519253340000000
10190.56 0.4645737990000000
10191.60 0.4772917930000000
10192.64 0.4901684240000000
10193.68 0.5031468280000000
10194.72 0.5162387550000000
10195.76 0.5293862300000000
10196.80 0.5427260760000000
10197.84 0.5560449660000000
10198.88 0.5695422320000000
10199.92 0.5831765249999999
10200.96 0.5967453300000000
10202.00 0.6104846220000000
10203.04 0.6244853190000000
10204.08 0.6386267920000001
10205.12 0.6532151750000000
10206.16 0.6687696570000000
10207.21 0.6860248110000000
10208.25 0.7148962920000000
10209.29 0.7543392200000000
10210.33 0.7606606620000000
10211.38 0.7675512650000000
10212.42 0.7741309660000000
10213.46 0.7804161230000000
10214.50 0.7863989660000000
10215.55 0.7920845830000000
10216.59 0.7974704730000000
10217.64 0.8025422480000000
10218.68 0.8072834719999999
10219.72 0.8116955390000000
10220.77 0.8158100210000000
10221.81 0.8196275830000000
10222.86 0.8231611170000001
10223.90 0.8264019170000000
10224.95 0.8293635380000000
10225.99 0.8320489150000000
10227.04 0.8344558350000000
10228.09 0.8365449530000000
10229.13 0.8383333330000000
10230.18 0.8397999620000000
10231.23 0.8409682680000000
10232.27 0.8418491310000000
10233.32 0.8424285080000000
10234.37 0.8427095300000000
10235.41 0.8426816790000000
10236.46 0.8423712420000000
10237.51 0.8417517930000000
10238.56 0.8408411290000000
10239.61 0.8396576400000000
10240.66 0.8382602850000000
10241.70 0.8366963320000000
10242.75 0.8349668960000000
10243.80 0.8330895020000000
10244.85 0.8310832400000000
10245.90 0.8289598080000000
10246.95 0.8267198680000000
10248.00 0.8243733120000000
10249.05 0.8219684410000000
10250.10 0.8194565539999999
10251.15 0.8168536100000000
10252.20 0.8142523930000000
10253.26 0.8116627150000000
10254.31 0.8090946850000000
10255.36 0.8065596260000000
10256.41 0.8040708230000000
10257.46 0.8016303800000000
10258.51 0.7991746890000000
10259.57 0.7967118420000000
10260.62 0.7943241400000000
10261.67 0.7920112300000000
10262.73 0.7897666340000000
10263.78 0.7875962050000000
10264.83 0.7855081830000000
10265.89 0.7835127430000000
10266.94 0.7816061920000000
10267.99 0.7798019170000000
10269.05 0.7781001820000000
10270.10 0.7765054580000000
10271.16 0.7750234670000000
10272.21 0.7736608050000000
10273.27 0.7724012900000000
10274.32 0.7712552420000000
10275.38 0.7702298869999999
10276.44 0.7693265100000000
10277.49 0.7685504960000000
10278.55 0.7679152690000000
10279.61 0.7674206800000000
10280.66 0.7670588010000000
10281.72 0.7668264210000000
10282.78 0.7667337050000000
10283.83 0.7667751340000000
10284.89 0.7669490300000000
10285.95 0.7672597710000000
10287.01 0.7676966550000000
10288.07 0.7682829980000000
10289.12 0.7689996240000000
10290.18 0.7698446690000000
10291.24 0.7708263150000000
10292.30 0.7719299210000000
10293.36 0.7731535480000000
10294.42 0.7744958020000000
10295.48 0.7759445180000000
10296.54 0.7774933200000000
10297.60 0.7791499510000000
10298.66 0.7809050170000000
10299.72 0.7827623970000001
10300.78 0.7847183580000000
10301.84 0.7867650730000000
10302.91 0.7889174110000000
10303.97 0.7911923370000000
10305.03 0.7935976350000000
10306.09 0.7961400680000000
10307.15 0.7988138960000000
10308.22 0.8016181120000000
10309.28 0.8045276370000000
10310.34 0.8075534070000000
10311.40 0.8107534420000000
10312.47 0.8140710450000000
10313.53 0.8173159129999999
10314.60 0.8204050600000000
10315.66 0.8234788350000000
10316.72 0.8266084190000000
10317.79 0.8297668610000000
10318.85 0.8329217450000000
10319.92 0.8360592990000000
10320.98 0.8391541870000000
10322.05 0.8422492350000000
10323.11 0.8453411470000000
10324.18 0.8484167530000000
10325.25 0.8514587900000000
10326.31 0.8544639020000000
10327.38 0.8574269220000000
10328.44 0.8603589810000000
10329.51 0.8632930920000000
10330.58 0.8662491000000000
10331.65 0.8692381470000000
10332.71 0.8722835160000000
10333.78 0.8753749310000000
10334.85 0.8784883820000000
10335.92 0.8815721550000000
10336.99 0.8845154540000000
10338.05 0.8874469360000000
10339.12 0.8904185040000000
10340.19 0.8933930410000001
10341.26 0.8963792240000000
10342.33 0.8993623210000000
10343.40 0.9023111460000000
10344.47 0.9052039600000000
10345.54 0.9080302680000000
10346.61 0.9107857310000000
10347.68 0.9134458160000000
10348.75 0.9160004630000000
10349.82 0.9184709590000000
10350.90 0.9208312100000000
10351.97 0.9230880910000000
10353.04 0.9252633810000001
10354.11 0.9273666340000000
10355.18 0.9293984550000000
10356.26 0.9313604440000000
10357.33 0.9332863860000000
10358.40 0.9351862410000000
10359.47 0.9370603770000000
10360.55 0.9389732870000000
10361.62 0.9409323469999999
10362.69 0.9429005370000000
10363.77 0.9448918780000000
10364.84 0.9468933370000000
10365.92 0.9489144970000000
10366.99 0.9509698070000000
10368.07 0.9530685010000000
10369.14 0.9552245790000000
10370.22 0.9573233150000000
10371.29 0.9593789540000000
10372.37 0.9614248860000000
10373.44 0.9634522770000000
10374.52 0.9654899560000000
10375.60 0.9682750050000000
10376.67 0.9726764760000000
10377.75 0.9778241120000000
10378.83 0.9828923070000000
10379.90 0.9874385610000000
10380.98 0.9911525470000000
10382.06 0.9939724790000000
10383.14 0.9960541270000000
10384.22 0.9975129970000000
10385.29 0.9985373430000000
10386.37 0.9995273880000000
10387.45 0.9999652500000000
10388.53 0.9997828890000000
10389.61 0.9987519690000000
10390.69 0.9971884540000000
10391.77 0.9954307640000000
10392.85 0.9939437490000000
10393.93 0.9930973850000000
10395.01 0.9926993320000000
10396.09 0.9909291040000000
10397.17 0.9878784480000000
10398.25 0.9835668680000000
10399.33 0.9784632370000000
10400.42 0.9732518720000000
10401.50 0.9686617650000000
10402.58 0.9653580400000000
10403.66 0.9637866180000000
10404.74 0.9625800180000000
10405.83 0.9613046700000000
10406.91 0.9600117860000000
10407.99 0.9587241430000000
10409.08 0.9574202680000000
10410.16 0.9561000210000000
10411.24 0.9547531990000000
10412.33 0.9533659570000000
10413.41 0.9519232640000000
10414.50 0.9504481250000000
10415.58 0.9489430020000000
10416.67 0.9474112850000000
10417.75 0.9458676000000000
10418.84 0.9442971390000000
10419.92 0.9426821580000000
10421.01 0.9410226080000000
10422.09 0.9393386330000000
10423.18 0.9376460890000000
10424.27 0.9359454730000000
10425.35 0.9342326000000000
10426.44 0.9325262420000000
10427.53 0.9308008040000000
10428.62 0.9290713090000000
10429.70 0.9273582050000000
10430.79 0.9256541650000000
10431.88 0.9239875350000000
10432.97 0.9223400890000000
10434.06 0.9207012840000000
10435.15 0.9190719410000000
10436.23 0.9174734490000001
10437.32 0.9159198160000001
10438.41 0.9144085300000000
10439.50 0.9129560260000000
10440.59 0.9115627930000000
10441.68 0.9101973719999999
10442.77 0.9088585320000000
10443.86 0.9075585530000000
10444.96 0.9062941010000000
10446.05 0.9050713580000000
10447.14 0.9038831750000000
10448.23 0.9027107830000000
10449.32 0.9015487050000000
10450.41 0.9003977710000000
10451.51 0.8992307000000000
10452.60 0.8978729940000000
10453.69 0.8961480330000000
10454.78 0.8943101190000000
10455.88 0.8924568620000000
10456.97 0.8906031440000000
10458.06 0.8887358710000000
10459.16 0.8868537570000000
10460.25 0.8849588040000000
10461.35 0.8830570730000000
10462.44 0.8811481560000000
10463.53 0.8792418310000000
10464.63 0.8773489740000000
10465.72 0.8754820340000000
10466.82 0.8736479450000000
10467.92 0.8718610090000000
10469.01 0.8701314290000000
10470.11 0.8684611340000000
10471.20 0.8668461260000000
10472.30 0.8652999050000000
10473.40 0.8638229130000000
10474.49 0.8624244440000000
10475.59 0.8611029030000000
10476.69 0.8598449379999999
10477.79 0.8586426960000000
10478.89 0.8574951200000001
10479.98 0.8563775420000000
10481.08 0.8552840060000000
10482.18 0.8542148420000000
10483.28 0.8531483170000000
10484.38 0.8520887190000000
10485.48 0.8510217610000000
10486.58 0.8499375020000000
10487.68 0.8488362970000000
10488.78 0.8477167770000000
10489.88 0.8465808520000000
10490.98 0.8454326550000000
10492.08 0.8442674620000000
10493.18 0.8430951640000000
10494.28 0.8419218120000000
10495.38 0.8407471480000001
10496.48 0.8395803590000001
10497.59 0.8384230029999999
10498.69 0.8372747260000000
10499.79 0.8361395350000000
10500.89 0.8350207610000000
10502.00 0.8339258250000000
10503.10 0.8328532970000000
10504.20 0.8318057220000000
10505.31 0.8307817540000000
10506.41 0.8297827600000000
10507.51 0.8288045469999999
10508.62 0.8278478280000000
10509.72 0.8269138730000000
10510.83 0.8260014130000000
10511.93 0.8251126960000000
10513.04 0.8242431350000000
10514.14 0.8233860300000000
10515.25 0.8225454940000000
10516.35 0.8217224530000000
10517.46 0.8209117110000000
10518.57 0.8201132010000000
10519.67 0.8193164790000000
10520.78 0.8185115640000000
10521.89 0.8176987680000000
10522.99 0.8168745790000000
10524.10 0.8160357820000000
10525.21 0.8151756990000000
10526.32 0.8142951210000000
10527.42 0.8133875690000000
10528.53 0.8124459370000000
10529.64 0.8114717010000000
10530.75 0.8104543150000000
10531.86 0.8093898580000000
10532.97 0.8082790820000000
10534.08 0.8071151550000000
10535.19 0.8058991480000000
10536.30 0.8046310110000000
10537.41 0.8033082950000000
10538.52 0.8019279640000000
10539.63 0.8004917660000000
10540.74 0.7989968890000000
10541.85 0.7974472310000000
10542.96 0.7958362050000000
10544.07 0.7941724670000000
10545.19 0.7924584530000000
10546.30 0.7906930430000000
10547.41 0.7888783450000000
10548.52 0.7870154220000000
10549.64 0.7851023960000000
10550.75 0.7831371430000000
10551.86 0.7811281620000000
10552.98 0.7790630520000000
10554.09 0.7769528890000000
10555.20 0.7747599560000000
10556.32 0.7721922520000000
10557.43 0.7695065290000001
10558.55 0.7667577560000000
10559.66 0.7639162410000000
10560.78 0.7609710330000000
10561.89 0.7579054350000000
10563.01 0.7547096710000000
10564.12 0.7513942130000000
10565.24 0.7478783650000000
10566.36 0.7441328650000000
10567.47 0.7402196440000000
10568.59 0.7360250580000000
10569.71 0.7316151520000000
10570.82 0.7270409300000000
10571.94 0.7222166190000000
10573.06 0.7173156830000000
10574.18 0.7123512490000000
10575.30 0.7073221500000000
10576.41 0.7023655160000000
10577.53 0.6973085720000000
10578.65 0.6922388840000000
10579.77 0.6870972970000000
10580.89 0.6819246010000000
10582.01 0.6766637620000000
10583.13 0.6713270870000000
10584.25 0.6659110240000000
10585.37 0.6604000810000000
10586.49 0.6547888420000000
10587.61 0.6490777290000000
10588.73 0.6432378620000000
10589.85 0.6373237980000001
10590.98 0.6313051730000000
10592.10 0.6251895669999999
10593.22 0.6189952850000000
10594.34 0.6126681570000000
10595.47 0.6062267180000001
10596.59 0.5997053640000000
10597.71 0.5930779330000000
10598.83 0.5863613400000000
10599.96 0.5795450820000000
10601.08 0.5726563980000000
10602.21 0.5657146510000000
10603.33 0.5586663560000000
10604.45 0.5515569040000000
10605.58 0.5444024700000000
10606.70 0.5371691200000001
10607.83 0.5298744980000000
10608.95 0.5225396790000000
10610.08 0.5151107980000000
10611.21 0.5076702740000000
10612.33 0.5002024900000001
10613.46 0.4927179090000000
10614.58 0.4852307270000000
10615.71 0.4776875420000000
10616.84 0.4701677620000000
10617.97 0.4626485680000000
10619.09 0.4550996670000000
10620.22 0.4475830910000000
10621.35 0.4400816490000000
10622.48 0.4325796340000000
10623.61 0.4250855740000000
10624.73 0.4175915200000000
10625.86 0.4100899890000000
10626.99 0.4026034670000000
10628.12 0.3951298110000000
10629.25 0.3876490270000000
10630.38 0.3801803300000000
10631.51 0.3727250730000000
10632.64 0.3652623510000000
10633.77 0.3578089670000000
10634.90 0.3503644500000000
10636.03 0.3429183600000000
10637.17 0.3355128120000000
10638.30 0.3281098750000000
10639.43 0.3207613700000000
10640.56 0.3134917340000000
10641.69 0.3062881130000000
10642.83 0.2991654190000000
10643.96 0.2921403770000000
10645.09 0.2851981540000000
10646.23 0.2783468350000000
10647.36 0.2716188510000000
10648.49 0.2650076100000000
10649.63 0.2585296890000000
10650.76 0.2521739900000000
10651.90 0.2459669560000000
10653.03 0.2398831980000000
10654.17 0.2339212930000000
10655.30 0.2280815300000000
10656.44 0.2223498180000000
10657.57 0.2167366180000000
10658.71 0.2112421100000000
10659.84 0.2058462990000000
10660.98 0.2005471670000000
10662.12 0.1953469400000000
10663.25 0.1902382460000000
10664.39 0.1852058080000000
10665.53 0.1802544080000000
10666.67 0.1753761320000000
10667.80 0.1705817500000000
10668.94 0.1658526860000000
10670.08 0.1612144540000000
10671.22 0.1566392220000000
10672.36 0.1521476520000000
10673.50 0.1477478360000000
10674.64 0.1434402350000000
10675.78 0.1392362880000000
10676.92 0.1351295130000000
10678.06 0.1311239620000000
10679.20 0.1272506580000000
10680.34 0.1234973960000000
10681.48 0.1198590300000000
10682.62 0.1163659870000000
10683.76 0.1129789740000000
10684.90 0.1096980150000000
10686.04 0.1065586590000000
10687.19 0.1035070910000000
10688.33 0.1005411040000000
10689.47 0.0976847840000000
10690.61 0.0949250150000000
10691.76 0.0922312320000000
10692.90 0.0896111460000000
10694.04 0.0870618980000000
10695.19 0.0845803980000000
10696.33 0.0821637380000000
10697.48 0.0797984080000000
10698.62 0.0774607290000000
10699.76 0.0751705660000000
10700.91 0.0729530780000000
10702.05 0.0708006560000000
10703.20 0.0686906750000000
10704.35 0.0666184000000000
10705.49 0.0646135480000000
10706.64 0.0626715220000000
10707.78 0.0607892260000000
10708.93 0.0589912510000000
10710.08 0.0572632520000000
10711.23 0.0555900920000000
10712.37 0.0539680280000000
10713.52 0.0523969360000000
10714.67 0.0508693920000000
10715.82 0.0494188380000000
10716.96 0.0480535280000000
10718.11 0.0467278480000000
10719.26 0.0454382380000000
10720.41 0.0441852290000000
10721.56 0.0429682180000000
10722.71 0.0417860830000000
10723.86 0.0406363880000000
10725.01 0.0395092460000000
10726.16 0.0384013600000000
10727.31 0.0373212510000000
10728.46 0.0362719190000000
10729.61 0.0352533240000000
10730.77 0.0342642220000000
10731.92 0.0333041070000000
10733.07 0.0323713360000000
10734.22 0.0314657090000000
10735.37 0.0305866890000000
10736.53 0.0297383170000000
10737.68 0.0289337600000000
10738.83 0.0281595140000000
10739.98 0.0274060280000000
10741.14 0.0266737760000000
10742.29 0.0259617990000000
10743.45 0.0252692600000000
10744.60 0.0245955420000000
10745.76 0.0239401430000000
10746.91 0.0233033090000000
10748.07 0.0226831860000000
10749.22 0.0220803440000000
10750.38 0.0214944190000000
10751.53 0.0209246210000000
10752.69 0.0203700000000000
10753.84 0.0198333350000000
10755.00 0.0193212120000000
10756.16 0.0188269870000000
10757.31 0.0183450280000000
10758.47 0.0178752940000000
10759.63 0.0174172150000000
10760.79 0.0169716840000000
10761.95 0.0165395380000000
10763.10 0.0161191260000000
10764.26 0.0157100650000000
10765.42 0.0153126050000000
10766.58 0.0149255750000000
10767.74 0.0145496430000000
10768.90 0.0141847910000000
10770.06 0.0138304690000000
10771.22 0.0134866220000000
10772.38 0.0131527380000000
10773.54 0.0128286070000000
10774.70 0.0125142550000000
10775.86 0.0122092590000000
10777.02 0.0119130290000000
10778.18 0.0116246070000000
10779.35 0.0113441710000000
10780.51 0.0110721970000000
10781.67 0.0108077130000000
10782.83 0.0105499090000000
10784.00 0.0102986130000000
10785.16 0.0100534620000000
10786.32 0.0098140240000000
10787.49 0.0095796780000000
10788.65 0.0093512990000000
10789.81 0.0091292930000000
10790.98 0.0089137010000000
10792.14 0.0087046080000000
10793.31 0.0085013270000000
10794.47 0.0083040040000000
10795.64 0.0081123170000000
10796.80 0.0079263910000000
10797.97 0.0077464310000000
10799.14 0.0075726780000000
10800.30 0.0074051950000000
10801.47 0.0072431300000000
10802.64 0.0070864970000000
10803.80 0.0069350040000000
10804.97 0.0067883700000000
10806.14 0.0066463110000000
10807.31 0.0065083770000000
10808.47 0.0063740620000000
10809.64 0.0062432200000000
10810.81 0.0061152610000000
10811.98 0.0059897800000000
10813.15 0.0058665750000000
10814.32 0.0057454770000000
10815.49 0.0056262970000000
10816.66 0.0055090330000000
10817.83 0.0053932260000000
10819.00 0.0052796860000000
10820.17 0.0051684990000000
10821.34 0.0050596070000000
10822.51 0.0049533470000000
10823.68 0.0048498530000000
10824.85 0.0047492170000000
10826.03 0.0046519160000000
10827.20 0.0045579970000000
10828.37 0.0044675710000000
10829.54 0.0043807430000000
10830.72 0.0042974390000000
10831.89 0.0042175820000000
10833.06 0.0041409350000000
10834.24 0.0040672780000000
10835.41 0.0039961570000000
10836.58 0.0039272300000000
10837.76 0.0038602590000000
10838.93 0.0037948620000000
10840.11 0.0037302710000000
10841.28 0.0036664430000000
10842.46 0.0036031820000000
10843.63 0.0035397720000000
10844.81 0.0034762950000000
10845.99 0.0034127630000000
10847.16 0.0033488980000000
10848.34 0.0032850740000000
10849.52 0.0032213260000000
10850.69 0.0031578540000000
10851.87 0.0030950940000000
10853.05 0.0030332140000000
10854.23 0.0029724000000000
10855.41 0.0029133320000000
10856.58 0.0028560570000000
10857.76 0.0028009840000000
10858.94 0.0027482220000000
10860.12 0.0026977580000000
10861.30 0.0026498270000000
10862.48 0.0026042020000000
10863.66 0.0025608550000000
10864.84 0.0025196780000000
10866.02 0.0024802540000000
10867.20 0.0024425720000000
10868.38 0.0024062350000000
10869.57 0.0023707990000000
10870.75 0.0023363400000000
10871.93 0.0023022990000000
10873.11 0.0022685370000000
10874.29 0.0022350200000000
10875.48 0.0022014990000000
10876.66 0.0021680490000000
10877.84 0.0021347610000000
10879.03 0.0021015120000000
10880.21 0.0020684420000000
10881.39 0.0020357430000000
10882.58 0.0020034100000000
10883.76 0.0019717590000000
10884.95 0.0019406860000000
10886.13 0.0019103440000000
10887.32 0.0018808840000000
10888.50 0.0018522580000000
10889.69 0.0018243650000000
10890.87 0.0017972210000000
10892.06 0.0017705750000000
10893.25 0.0017444740000000
10894.43 0.0017186050000000
10895.62 0.0016928590000000
10896.81 0.0016670480000000
10897.99 0.0016410730000000
10899.18 0.0016149250000000
10900.37 0.0015884070000000
10901.56 0.0015616710000000
10902.75 0.0015345550000000
10903.94 0.0015073210000000
10905.13 0.0014802010000000
10906.31 0.0014532640000000
10907.50 0.0014268700000000
10908.69 0.0014011460000000
10909.88 0.0013763740000000
10911.07 0.0013527930000000
10912.27 0.0013306670000000
10913.46 0.0013101060000000
10914.65 0.0012912700000000
10915.84 0.0012740750000000
10917.03 0.0012586430000000
10918.22 0.0012451050000000
10919.41 0.0012063600000000
10920.61 0.0009680050000000
