# HIMAWARI8 relative spectral response function for band 9
# (see http://www.data.jma.go.jp/mscweb/en/himawari89/space_segment/spsg_ahi.html#band)
# converted from 
# http://www.data.jma.go.jp/mscweb/en/himawari89/space_segment/srf_201309/AHI-08_SpectralResponsivity.zip
# http://www.data.jma.go.jp/mscweb/en/himawari89/space_segment/srf_201310/AHI-09_SpectralResponsivity.zip
# 
# LAMBDA   RSR
# 
 6543.22 0.0009419230000000
 6543.65 0.0010638990000000
 6544.07 0.0011481810000000
 6544.50 0.0011652390000000
 6544.93 0.0011749410000000
 6545.36 0.0011835160000000
 6545.79 0.0011894170000000
 6546.22 0.0011906270000000
 6546.64 0.0011909590000000
 6547.07 0.0011910030000000
 6547.50 0.0011900310000000
 6547.93 0.0011888410000000
 6548.36 0.0011899240000000
 6548.79 0.0011934200000000
 6549.22 0.0011989210000000
 6549.65 0.0012097890000000
 6550.08 0.0012236940000000
 6550.50 0.0012421460000000
 6550.93 0.0012642490000000
 6551.36 0.0012888850000000
 6551.79 0.0013156010000000
 6552.22 0.0013425060000000
 6552.65 0.0013691960000000
 6553.08 0.0013928770000000
 6553.51 0.0014144880000000
 6553.94 0.0014317210000000
 6554.37 0.0014434230000000
 6554.80 0.0014517190000000
 6555.23 0.0014523170000000
 6555.66 0.0014497750000000
 6556.09 0.0014450280000000
 6556.52 0.0014355510000000
 6556.95 0.0014240690000000
 6557.38 0.0014122760000000
 6557.81 0.0014005220000000
 6558.24 0.0013923010000000
 6558.67 0.0013856380000000
 6559.10 0.0013837280000000
 6559.53 0.0013876390000000
 6559.96 0.0013948240000000
 6560.39 0.0014076210000000
 6560.82 0.0014276370000000
 6561.25 0.0014498360000000
 6561.68 0.0014766430000000
 6562.11 0.0015046360000000
 6562.54 0.0015335640000000
 6562.97 0.0015620020000000
 6563.40 0.0015882360000000
 6563.83 0.0016123440000000
 6564.26 0.0016318560000000
 6564.70 0.0016488360000000
 6565.13 0.0016618740000000
 6565.56 0.0016706380000000
 6565.99 0.0016768450000000
 6566.42 0.0016796000000000
 6566.85 0.0016815440000000
 6567.28 0.0016836010000000
 6567.71 0.0016856040000000
 6568.14 0.0016890890000000
 6568.58 0.0016968060000000
 6569.01 0.0017078480000000
 6569.44 0.0017242750000000
 6569.87 0.0017464830000000
 6570.30 0.0017729600000000
 6570.73 0.0018047720000000
 6571.17 0.0018397540000000
 6571.60 0.0018773610000000
 6572.03 0.0019158330000000
 6572.46 0.0019541450000000
 6572.89 0.0019912660000000
 6573.33 0.0020248180000000
 6573.76 0.0020554580000000
 6574.19 0.0020798120000000
 6574.62 0.0021001530000000
 6575.05 0.0021142860000000
 6575.49 0.0021229010000000
 6575.92 0.0021281950000000
 6576.35 0.0021274190000000
 6576.78 0.0021246710000000
 6577.22 0.0021212160000000
 6577.65 0.0021161920000000
 6578.08 0.0021142430000000
 6578.51 0.0021166890000000
 6578.95 0.0021216120000000
 6579.38 0.0021326020000000
 6579.81 0.0021521710000000
 6580.25 0.0021754560000000
 6580.68 0.0022068470000000
 6581.11 0.0022421250000000
 6581.55 0.0022825010000000
 6581.98 0.0023252080000000
 6582.41 0.0023695250000000
 6582.85 0.0024144490000000
 6583.28 0.0024570240000000
 6583.71 0.0024979420000000
 6584.15 0.0025348610000000
 6584.58 0.0025675260000000
 6585.01 0.0025949010000000
 6585.45 0.0026168300000000
 6585.88 0.0026351800000000
 6586.31 0.0026487690000000
 6586.75 0.0026596040000000
 6587.18 0.0026702350000000
 6587.62 0.0026802000000000
 6588.05 0.0026920620000000
 6588.48 0.0027083540000000
 6588.92 0.0027276970000000
 6589.35 0.0027532890000000
 6589.79 0.0027838010000000
 6590.22 0.0028202380000000
 6590.65 0.0028618980000000
 6591.09 0.0029083470000000
 6591.52 0.0029587900000000
 6591.96 0.0030110810000000
 6592.39 0.0030645770000000
 6592.83 0.0031184710000000
 6593.26 0.0031694720000000
 6593.70 0.0032183560000000
 6594.13 0.0032630080000000
 6594.57 0.0033020540000000
 6595.00 0.0033357860000000
 6595.44 0.0033630730000000
 6595.87 0.0033862620000000
 6596.31 0.0034048760000000
 6596.74 0.0034204300000000
 6597.18 0.0034357120000000
 6597.61 0.0034510050000000
 6598.05 0.0034680100000000
 6598.48 0.0034894080000000
 6598.92 0.0035145140000000
 6599.35 0.0035451100000000
 6599.79 0.0035825160000000
 6600.22 0.0036250460000000
 6600.66 0.0036743420000000
 6601.10 0.0037280590000000
 6601.53 0.0037872550000000
 6601.97 0.0038493180000000
 6602.40 0.0039130250000000
 6602.84 0.0039775040000000
 6603.28 0.0040388680000000
 6603.71 0.0040979910000000
 6604.15 0.0041523330000000
 6604.58 0.0042000970000000
 6605.02 0.0042426550000000
 6605.46 0.0042784000000000
 6605.89 0.0043100050000000
 6606.33 0.0043365490000000
 6606.77 0.0043605630000000
 6607.20 0.0043843780000000
 6607.64 0.0044074810000000
 6608.08 0.0044330660000000
 6608.51 0.0044629330000000
 6608.95 0.0044964140000000
 6609.39 0.0045378230000000
 6609.82 0.0045852490000000
 6610.26 0.0046418430000000
 6610.70 0.0047060670000000
 6611.13 0.0047763620000000
 6611.57 0.0048546530000000
 6612.01 0.0049369710000000
 6612.44 0.0050221610000000
 6612.88 0.0051087900000000
 6613.32 0.0051928550000000
 6613.76 0.0052752860000000
 6614.19 0.0053532080000000
 6614.63 0.0054263980000000
 6615.07 0.0054945020000000
 6615.51 0.0055563980000000
 6615.94 0.0056138080000000
 6616.38 0.0056667110000000
 6616.82 0.0057164230000000
 6617.26 0.0057655620000000
 6617.70 0.0058136840000000
 6618.13 0.0058639870000000
 6618.57 0.0059180970000000
 6619.01 0.0059769650000000
 6619.45 0.0060438810000000
 6619.89 0.0061175970000000
 6620.32 0.0062007290000000
 6620.76 0.0062928310000000
 6621.20 0.0063913800000000
 6621.64 0.0064978920000000
 6622.08 0.0066081990000000
 6622.52 0.0067222750000000
 6622.96 0.0068372350000000
 6623.39 0.0069514060000000
 6623.83 0.0070642640000000
 6624.27 0.0071727720000000
 6624.71 0.0072781230000000
 6625.15 0.0073777450000000
 6625.59 0.0074718170000000
 6626.03 0.0075609190000000
 6626.47 0.0076445390000000
 6626.91 0.0077248440000000
 6627.34 0.0078036120000000
 6627.78 0.0078810470000000
 6628.22 0.0079616540000000
 6628.66 0.0080457530000000
 6629.10 0.0081367950000000
 6629.54 0.0082360280000000
 6629.98 0.0083429910000000
 6630.42 0.0084602650000000
 6630.86 0.0085871360000000
 6631.30 0.0087223460000000
 6631.74 0.0088668720000000
 6632.18 0.0090169270000000
 6632.62 0.0091735540000000
 6633.06 0.0093330580000000
 6633.50 0.0094951240000000
 6633.94 0.0096567470000000
 6634.38 0.0098147770000000
 6634.82 0.0099701560000000
 6635.26 0.0101195520000000
 6635.70 0.0102638170000000
 6636.14 0.0104024270000000
 6636.58 0.0105350590000000
 6637.02 0.0106644640000000
 6637.46 0.0107909640000000
 6637.90 0.0109171510000000
 6638.34 0.0110454560000000
 6638.78 0.0111763610000000
 6639.22 0.0113122440000000
 6639.67 0.0114545740000000
 6640.11 0.0116047110000000
 6640.55 0.0117638410000000
 6640.99 0.0119310600000000
 6641.43 0.0121077830000000
 6641.87 0.0122931900000000
 6642.31 0.0124859160000000
 6642.75 0.0126864130000000
 6643.19 0.0128910770000000
 6643.64 0.0131006800000000
 6644.08 0.0133109150000000
 6644.52 0.0135211470000000
 6644.96 0.0137299240000000
 6645.40 0.0139358650000000
 6645.84 0.0141396220000000
 6646.28 0.0143411460000000
 6646.73 0.0145405630000000
 6647.17 0.0147397230000000
 6647.61 0.0149389590000000
 6648.05 0.0151404620000000
 6648.49 0.0153449350000000
 6648.94 0.0155531960000000
 6649.38 0.0157684970000000
 6649.82 0.0159907230000000
 6650.26 0.0162226570000000
 6650.70 0.0164645250000000
 6651.15 0.0167170180000000
 6651.59 0.0169814550000000
 6652.03 0.0172557070000000
 6652.47 0.0175402990000000
 6652.92 0.0178332430000000
 6653.36 0.0181323020000000
 6653.80 0.0184369240000000
 6654.25 0.0187446260000000
 6654.69 0.0190548390000000
 6655.13 0.0193664200000000
 6655.57 0.0196797070000000
 6656.02 0.0199930340000000
 6656.46 0.0203053530000000
 6656.90 0.0206167850000000
 6657.35 0.0209262650000000
 6657.79 0.0212343720000000
 6658.23 0.0215437950000000
 6658.68 0.0218538780000000
 6659.12 0.0221708310000000
 6659.56 0.0224950280000000
 6660.01 0.0228292780000000
 6660.45 0.0231760180000000
 6660.89 0.0235352270000000
 6661.34 0.0239083500000000
 6661.78 0.0242956110000000
 6662.23 0.0246960240000000
 6662.67 0.0251107220000000
 6663.11 0.0255364610000000
 6663.56 0.0259753270000000
 6664.00 0.0264221490000000
 6664.45 0.0268783790000000
 6664.89 0.0273390710000000
 6665.33 0.0278035300000000
 6665.78 0.0282715320000000
 6666.22 0.0287411040000000
 6666.67 0.0292122060000000
 6667.11 0.0296847210000000
 6667.56 0.0301589400000000
 6668.00 0.0306358330000000
 6668.44 0.0311165650000000
 6668.89 0.0316029280000000
 6669.33 0.0320991260000000
 6669.78 0.0326049550000000
 6670.22 0.0331245450000000
 6670.67 0.0336579610000000
 6671.11 0.0342078720000000
 6671.56 0.0347753400000000
 6672.00 0.0353613760000000
 6672.45 0.0359680680000000
 6672.89 0.0365943890000000
 6673.34 0.0372420310000000
 6673.79 0.0379089570000000
 6674.23 0.0386003180000000
 6674.68 0.0393107560000000
 6675.12 0.0400386340000000
 6675.57 0.0407871980000000
 6676.01 0.0415471550000000
 6676.46 0.0423146090000000
 6676.90 0.0430893810000000
 6677.35 0.0438720090000000
 6677.80 0.0446599810000000
 6678.24 0.0454548570000000
 6678.69 0.0462560680000000
 6679.13 0.0470668360000000
 6679.58 0.0478870740000000
 6680.03 0.0487195330000000
 6680.47 0.0495636650000000
 6680.92 0.0504248590000000
 6681.37 0.0513115060000000
 6681.81 0.0522212360000000
 6682.26 0.0531563420000000
 6682.71 0.0541229160000000
 6683.15 0.0551182440000000
 6683.60 0.0561457380000000
 6684.05 0.0571950700000000
 6684.49 0.0582703700000000
 6684.94 0.0593636880000000
 6685.39 0.0604781690000000
 6685.83 0.0616119840000000
 6686.28 0.0627625100000000
 6686.73 0.0639310680000000
 6687.17 0.0651162230000000
 6687.62 0.0663136750000000
 6688.07 0.0675284400000000
 6688.52 0.0687631000000000
 6688.96 0.0700179630000000
 6689.41 0.0712963210000000
 6689.86 0.0725952910000000
 6690.31 0.0739097300000000
 6690.75 0.0752415580000000
 6691.20 0.0765964480000000
 6691.65 0.0779727370000000
 6692.10 0.0793761560000000
 6692.54 0.0808096660000000
 6692.99 0.0822749550000000
 6693.44 0.0837791220000000
 6693.89 0.0853164630000000
 6694.34 0.0869022820000000
 6694.78 0.0885223690000000
 6695.23 0.0901929220000000
 6695.68 0.0919156570000000
 6696.13 0.0936705260000000
 6696.58 0.0954663620000000
 6697.03 0.0973138020000000
 6697.48 0.0992285350000000
 6697.92 0.1011848830000000
 6698.37 0.1031791170000000
 6698.82 0.1052109570000000
 6699.27 0.1072732130000000
 6699.72 0.1093713260000000
 6700.17 0.1115072790000000
 6700.62 0.1136759140000000
 6701.07 0.1158767760000000
 6701.51 0.1181109760000000
 6701.96 0.1203817700000000
 6702.41 0.1226918700000000
 6702.86 0.1250434840000000
 6703.31 0.1274450630000000
 6703.76 0.1298955870000000
 6704.21 0.1324006660000000
 6704.66 0.1349594340000000
 6705.11 0.1375793890000000
 6705.56 0.1402715920000000
 6706.01 0.1430203570000000
 6706.46 0.1458406330000000
 6706.91 0.1487256170000000
 6707.36 0.1516938490000000
 6707.81 0.1547203620000000
 6708.26 0.1578050340000000
 6708.71 0.1609576740000000
 6709.16 0.1641694660000000
 6709.61 0.1674412220000000
 6710.06 0.1707623900000000
 6710.51 0.1741323880000000
 6710.96 0.1775496820000000
 6711.41 0.1810104100000000
 6711.86 0.1845185130000000
 6712.31 0.1880774160000000
 6712.76 0.1916883120000000
 6713.21 0.1953596280000000
 6713.66 0.1990942290000000
 6714.11 0.2028808270000000
 6714.56 0.2067449760000000
 6715.01 0.2106700070000000
 6715.47 0.2146752540000000
 6715.92 0.2187444440000000
 6716.37 0.2228869440000000
 6716.82 0.2271058120000000
 6717.27 0.2314070780000000
 6717.72 0.2357679680000000
 6718.17 0.2401895580000000
 6718.62 0.2446756670000000
 6719.08 0.2492138440000000
 6719.53 0.2538025200000000
 6719.98 0.2584402190000000
 6720.43 0.2631238560000000
 6720.88 0.2678558480000000
 6721.33 0.2726366100000000
 6721.79 0.2774676300000000
 6722.24 0.2823532720000000
 6722.69 0.2872938850000000
 6723.14 0.2922965710000000
 6723.59 0.2973657020000000
 6724.05 0.3024907270000000
 6724.50 0.3077008630000000
 6724.95 0.3129817300000000
 6725.40 0.3183612120000000
 6725.85 0.3238170460000000
 6726.31 0.3293722430000000
 6726.76 0.3350274890000000
 6727.21 0.3407656100000000
 6727.66 0.3465816290000000
 6728.12 0.3524670710000000
 6728.57 0.3584216690000000
 6729.02 0.3644503290000000
 6729.48 0.3705711960000000
 6729.93 0.3767472220000000
 6730.38 0.3829314280000000
 6730.83 0.3891418390000000
 6731.29 0.3953913490000000
 6731.74 0.4016768770000000
 6732.19 0.4079714710000000
 6732.65 0.4142737980000000
 6733.10 0.4205957470000000
 6733.55 0.4269380310000000
 6734.01 0.4333052260000000
 6734.46 0.4397127090000000
 6734.91 0.4461535150000000
 6735.37 0.4526328680000000
 6735.82 0.4591449700000000
 6736.27 0.4657137980000000
 6736.73 0.4723396390000000
 6737.18 0.4790350080000000
 6737.64 0.4858010200000000
 6738.09 0.4926364110000000
 6738.54 0.4995420180000000
 6739.00 0.5065226710000000
 6739.45 0.5135870280000000
 6739.91 0.5207249360000000
 6740.36 0.5279288120000000
 6740.82 0.5351941590000000
 6741.27 0.5424904760000000
 6741.72 0.5498218520000000
 6742.18 0.5571605140000000
 6742.63 0.5645069410000000
 6743.09 0.5718523070000000
 6743.54 0.5791899130000000
 6744.00 0.5865179730000000
 6744.45 0.5938276150000000
 6744.91 0.6011192040000000
 6745.36 0.6083828830000000
 6745.82 0.6156335270000000
 6746.27 0.6228901760000000
 6746.73 0.6301555320000000
 6747.18 0.6374461290000000
 6747.64 0.6447636710000000
 6748.09 0.6521050060000000
 6748.55 0.6594744250000000
 6749.00 0.6668568950000000
 6749.46 0.6742439780000000
 6749.92 0.6816360970000001
 6750.37 0.6890269400000000
 6750.83 0.6964194910000000
 6751.28 0.7038215070000000
 6751.74 0.7112284700000000
 6752.19 0.7186031090000000
 6752.65 0.7259549290000000
 6753.11 0.7332149740000000
 6753.56 0.7403797260000000
 6754.02 0.7474107560000000
 6754.47 0.7542700580000000
 6754.93 0.7609971540000000
 6755.39 0.7675212880000000
 6755.84 0.7739248850000000
 6756.30 0.7801601180000000
 6756.76 0.7862360510000000
 6757.21 0.7921716920000000
 6757.67 0.7979806280000000
 6758.13 0.8036694530000000
 6758.58 0.8092402359999999
 6759.04 0.8146990440000000
 6759.50 0.8200481140000000
 6759.95 0.8252953159999999
 6760.41 0.8304327010000000
 6760.87 0.8354729920000000
 6761.33 0.8403945830000000
 6761.78 0.8452356400000000
 6762.24 0.8499892890000000
 6762.70 0.8546591470000000
 6763.15 0.8592420220000000
 6763.61 0.8637394920000000
 6764.07 0.8681549980000000
 6764.53 0.8724850720000000
 6764.98 0.8767499180000000
 6765.44 0.8809309350000000
 6765.90 0.8850355440000000
 6766.36 0.8890155870000001
 6766.82 0.8928618620000000
 6767.27 0.8966272170000000
 6767.73 0.9003272280000000
 6768.19 0.9039604130000000
 6768.65 0.9075345290000000
 6769.11 0.9110050830000000
 6769.56 0.9143142850000000
 6770.02 0.9173798160000000
 6770.48 0.9201425720000000
 6770.94 0.9226083420000000
 6771.40 0.9246191910000000
 6771.86 0.9264216450000000
 6772.31 0.9283734060000000
 6772.77 0.9304026600000000
 6773.23 0.9324848070000000
 6773.69 0.9346272070000000
 6774.15 0.9367418199999999
 6774.61 0.9388277240000000
 6775.07 0.9408459620000000
 6775.53 0.9427547990000000
 6775.99 0.9445751690000000
 6776.45 0.9463351300000000
 6776.90 0.9480275600000000
 6777.36 0.9496244850000000
 6777.82 0.9511506380000000
 6778.28 0.9525953470000000
 6778.74 0.9539558070000000
 6779.20 0.9552412310000000
 6779.66 0.9564646430000000
 6780.12 0.9576238410000000
 6780.58 0.9587262009999999
 6781.04 0.9597570880000000
 6781.50 0.9607206010000000
 6781.96 0.9616065160000000
 6782.42 0.9624080100000000
 6782.88 0.9631310950000000
 6783.34 0.9637665580000000
 6783.80 0.9643272150000000
 6784.26 0.9647880270000000
 6784.72 0.9651788250000000
 6785.18 0.9654430540000000
 6785.64 0.9656192980000000
 6786.10 0.9657508180000000
 6786.56 0.9657233280000000
 6787.02 0.9655814930000000
 6787.48 0.9653471640000000
 6787.94 0.9650411620000000
 6788.41 0.9646650030000000
 6788.87 0.9642245010000000
 6789.33 0.9637399910000000
 6789.79 0.9631998170000000
 6790.25 0.9626131560000000
 6790.71 0.9619716370000000
 6791.17 0.9612963130000000
 6791.63 0.9605809730000000
 6792.09 0.9598552920000000
 6792.56 0.9591258660000000
 6793.02 0.9583980450000000
 6793.48 0.9576790880000000
 6793.94 0.9569654610000000
 6794.40 0.9562564530000000
 6794.86 0.9555526310000000
 6795.32 0.9548548540000000
 6795.79 0.9541630790000000
 6796.25 0.9534811930000000
 6796.71 0.9528097110000000
 6797.17 0.9521355280000000
 6797.63 0.9514562840000000
 6798.10 0.9507601140000000
 6798.56 0.9500423700000000
 6799.02 0.9493052440000000
 6799.48 0.9485447620000000
 6799.95 0.9477693430000000
 6800.41 0.9469861540000000
 6800.87 0.9461977850000000
 6801.33 0.9454167560000000
 6801.80 0.9446414460000000
 6802.26 0.9438789570000000
 6802.72 0.9431282270000000
 6803.18 0.9423936120000000
 6803.65 0.9416750380000000
 6804.11 0.9409708800000000
 6804.57 0.9402852310000001
 6805.04 0.9395991030000000
 6805.50 0.9388933330000000
 6805.96 0.9381763370000000
 6806.43 0.9374444400000000
 6806.89 0.9367069360000000
 6807.35 0.9359886810000000
 6807.82 0.9352843620000000
 6808.28 0.9345964490000001
 6808.74 0.9339240630000000
 6809.21 0.9332731050000000
 6809.67 0.9326410979999999
 6810.13 0.9320413710000000
 6810.60 0.9314718870000001
 6811.06 0.9309393750000000
 6811.53 0.9304410210000000
 6811.99 0.9299838530000000
 6812.45 0.9295692440000000
 6812.92 0.9291973300000000
 6813.38 0.9288758459999999
 6813.85 0.9285936040000000
 6814.31 0.9283499410000000
 6814.77 0.9281369030000000
 6815.24 0.9279533200000000
 6815.70 0.9277933170000000
 6816.17 0.9276542040000000
 6816.63 0.9275339390000000
 6817.10 0.9274196630000000
 6817.56 0.9273145020000000
 6818.03 0.9272176370000000
 6818.49 0.9271306470000000
 6818.96 0.9270575680000001
 6819.42 0.9269956790000000
 6819.89 0.9269538010000000
 6820.35 0.9269518640000000
 6820.82 0.9269526940000000
 6821.28 0.9269686180000000
 6821.75 0.9270371930000000
 6822.21 0.9271267820000000
 6822.68 0.9272577560000000
 6823.14 0.9274164240000000
 6823.61 0.9276122610000000
 6824.08 0.9278377090000000
 6824.54 0.9280962260000000
 6825.01 0.9283834140000000
 6825.47 0.9286985770000000
 6825.94 0.9290372340000000
 6826.40 0.9293899110000000
 6826.87 0.9297599640000000
 6827.34 0.9301473179999999
 6827.80 0.9305435510000000
 6828.27 0.9309476220000000
 6828.74 0.9313580940000000
 6829.20 0.9317757129999999
 6829.67 0.9322004870000000
 6830.13 0.9326345650000000
 6830.60 0.9330788050000000
 6831.07 0.9335323350000000
 6831.53 0.9339941950000000
 6832.00 0.9344677630000000
 6832.47 0.9349558140000001
 6832.93 0.9354576660000000
 6833.40 0.9359737260000000
 6833.87 0.9365039590000001
 6834.34 0.9370471650000000
 6834.80 0.9376040640000000
 6835.27 0.9381758500000000
 6835.74 0.9387626270000000
 6836.20 0.9393501720000000
 6836.67 0.9399386340000000
 6837.14 0.9405238600000000
 6837.61 0.9411061330000000
 6838.07 0.9417030850000000
 6838.54 0.9423134970000000
 6839.01 0.9429348720000000
 6839.48 0.9435702020000000
 6839.95 0.9442193010000000
 6840.41 0.9448851290000000
 6840.88 0.9455645260000000
 6841.35 0.9462526340000000
 6841.82 0.9469482910000000
 6842.29 0.9476404940000001
 6842.75 0.9483301130000000
 6843.22 0.9490058000000000
 6843.69 0.9496683100000000
 6844.16 0.9503155900000000
 6844.63 0.9509457900000000
 6845.10 0.9515705460000000
 6845.56 0.9521874450000000
 6846.03 0.9528169090000000
 6846.50 0.9534710380000000
 6846.97 0.9541492200000000
 6847.44 0.9548735400000000
 6847.91 0.9556409250000000
 6848.38 0.9564865070000000
 6848.85 0.9573887750000000
 6849.32 0.9583585100000001
 6849.78 0.9593772810000000
 6850.25 0.9604390810000000
 6850.72 0.9615472520000000
 6851.19 0.9626855890000000
 6851.66 0.9638578140000000
 6852.13 0.9650379390000000
 6852.60 0.9662242250000000
 6853.07 0.9674021200000000
 6853.54 0.9685662510000000
 6854.01 0.9697133420000000
 6854.48 0.9708383450000000
 6854.95 0.9719443520000000
 6855.42 0.9730315020000000
 6855.89 0.9741018080000000
 6856.36 0.9751583440000000
 6856.83 0.9762018040000000
 6857.30 0.9772366130000000
 6857.77 0.9782540870000000
 6858.24 0.9792534240000000
 6858.71 0.9802214800000000
 6859.18 0.9811716450000000
 6859.65 0.9821024720000000
 6860.12 0.9830139390000000
 6860.59 0.9839034050000000
 6861.06 0.9847699690000000
 6861.53 0.9856165940000000
 6862.01 0.9864318510000000
 6862.48 0.9872084550000000
 6862.95 0.9879504110000000
 6863.42 0.9886590730000000
 6863.89 0.9893333060000000
 6864.36 0.9899660480000000
 6864.83 0.9905635140000000
 6865.30 0.9911307630000000
 6865.77 0.9916697410000000
 6866.25 0.9921816810000000
 6866.72 0.9926682890000000
 6867.19 0.9931397199999999
 6867.66 0.9935957260000000
 6868.13 0.9940444770000000
 6868.60 0.9944850940000000
 6869.08 0.9949137620000000
 6869.55 0.9953322520000000
 6870.02 0.9957337390000000
 6870.49 0.9960965170000000
 6870.96 0.9964332430000000
 6871.44 0.9967433120000000
 6871.91 0.9970314000000000
 6872.38 0.9972991830000000
 6872.85 0.9975517250000000
 6873.32 0.9978011590000000
 6873.80 0.9980459300000000
 6874.27 0.9982900139999999
 6874.74 0.9985328670000000
 6875.21 0.9987691280000000
 6875.69 0.9989999510000001
 6876.16 0.9992144330000000
 6876.63 0.9994138030000000
 6877.11 0.9995933010000000
 6877.58 0.9997449859999999
 6878.05 0.9998748490000000
 6878.53 0.9999583490000000
 6879.00 0.9999999990000000
 6879.47 0.9999871340000001
 6879.94 0.9999524050000000
 6880.42 0.9998363310000000
 6880.89 0.9996946209999999
 6881.37 0.9994877780000000
 6881.84 0.9992108940000000
 6882.31 0.9988829720000000
 6882.79 0.9984870260000001
 6883.26 0.9980476750000000
 6883.73 0.9975539640000000
 6884.21 0.9970268350000000
 6884.68 0.9964608160000000
 6885.16 0.9958788850000000
 6885.63 0.9952813160000000
 6886.10 0.9946824770000000
 6886.58 0.9940883480000000
 6887.05 0.9934974260000000
 6887.53 0.9929123670000000
 6888.00 0.9923349370000000
 6888.48 0.9917706280000000
 6888.95 0.9912166660000000
 6889.42 0.9906744490000000
 6889.90 0.9901376589999999
 6890.37 0.9895973900000000
 6890.85 0.9890516250000000
 6891.32 0.9884856840000000
 6891.80 0.9879037930000000
 6892.27 0.9873108400000000
 6892.75 0.9867072620000000
 6893.22 0.9860902260000000
 6893.70 0.9854571150000000
 6894.17 0.9848466410000000
 6894.65 0.9842566850000000
 6895.13 0.9837177840000000
 6895.60 0.9832436200000000
 6896.08 0.9828211460000000
 6896.55 0.9824400740000000
 6897.03 0.9821029440000000
 6897.50 0.9818229180000000
 6897.98 0.9815619940000000
 6898.45 0.9812977220000000
 6898.93 0.9810211470000000
 6899.41 0.9806570700000000
 6899.88 0.9802270020000000
 6900.36 0.9796932310000001
 6900.84 0.9790548300000000
 6901.31 0.9782941710000000
 6901.79 0.9773993230000000
 6902.26 0.9763810950000000
 6902.74 0.9752454530000000
 6903.22 0.9740294260000000
 6903.69 0.9727194470000000
 6904.17 0.9713833520000000
 6904.65 0.9700289750000000
 6905.12 0.9687197880000000
 6905.60 0.9674499000000000
 6906.08 0.9662837790000000
 6906.55 0.9652195649999999
 6907.03 0.9643046159999999
 6907.51 0.9635414830000000
 6907.99 0.9629216860000001
 6908.46 0.9624599200000000
 6908.94 0.9620757009999999
 6909.42 0.9617314510000000
 6909.89 0.9614147210000000
 6910.37 0.9610418220000000
 6910.85 0.9606233840000000
 6911.33 0.9601168680000000
 6911.81 0.9595232889999999
 6912.28 0.9588588370000000
 6912.76 0.9581113100000000
 6913.24 0.9572974970000000
 6913.72 0.9564333350000001
 6914.19 0.9555515180000000
 6914.67 0.9546465140000000
 6915.15 0.9537809860000001
 6915.63 0.9529573620000000
 6916.11 0.9521989330000000
 6916.59 0.9514981660000000
 6917.06 0.9508867620000000
 6917.54 0.9503694660000001
 6918.02 0.9499203090000000
 6918.50 0.9495307560000000
 6918.98 0.9491814800000000
 6919.46 0.9488641340000000
 6919.94 0.9485595930000000
 6920.42 0.9482491820000000
 6920.89 0.9479261000000000
 6921.37 0.9475603130000000
 6921.85 0.9471599570000000
 6922.33 0.9467094750000000
 6922.81 0.9462092830000000
 6923.29 0.9456799100000000
 6923.77 0.9451100750000000
 6924.25 0.9445265090000000
 6924.73 0.9439360810000000
 6925.21 0.9433853470000000
 6925.69 0.9428671150000000
 6926.17 0.9424306150000000
 6926.65 0.9420550020000000
 6927.13 0.9417858910000000
 6927.61 0.9415785030000000
 6928.09 0.9414913960000000
 6928.57 0.9414742390000000
 6929.05 0.9414694300000001
 6929.53 0.9415259700000000
 6930.01 0.9415975820000000
 6930.49 0.9416308610000000
 6930.97 0.9416498980000000
 6931.45 0.9415849420000000
 6931.93 0.9414430350000000
 6932.41 0.9412067090000000
 6932.89 0.9408691020000000
 6933.37 0.9404268470000000
 6933.85 0.9398977240000000
 6934.33 0.9393244250000000
 6934.81 0.9387047670000001
 6935.29 0.9381023280000000
 6935.77 0.9375193670000000
 6936.26 0.9370169590000000
 6936.74 0.9365750400000000
 6937.22 0.9362813020000000
 6937.70 0.9360636790000000
 6938.18 0.9360183940000000
 6938.66 0.9360660200000001
 6939.14 0.9361558250000001
 6939.63 0.9363875630000000
 6940.11 0.9366615020000000
 6940.59 0.9369468390000000
 6941.07 0.9372229850000000
 6941.55 0.9374899610000000
 6942.03 0.9376710230000000
 6942.52 0.9377861090000000
 6943.00 0.9378405550000000
 6943.48 0.9377846100000000
 6943.96 0.9376610650000000
 6944.44 0.9374555710000000
 6944.93 0.9371713739999999
 6945.41 0.9368704850000000
 6945.89 0.9365565769999999
 6946.37 0.9362576800000000
 6946.86 0.9359875220000000
 6947.34 0.9357999480000000
 6947.82 0.9356668780000000
 6948.30 0.9356762670000000
 6948.79 0.9357781400000000
 6949.27 0.9359361680000000
 6949.75 0.9362107790000000
 6950.24 0.9365271560000000
 6950.72 0.9369021900000000
 6951.20 0.9372850650000000
 6951.69 0.9376681620000000
 6952.17 0.9380165400000000
 6952.65 0.9383060100000000
 6953.14 0.9385062020000000
 6953.62 0.9386468690000001
 6954.10 0.9386911680000000
 6954.59 0.9386468930000000
 6955.07 0.9385692710000000
 6955.55 0.9384230940000000
 6956.04 0.9382553450000000
 6956.52 0.9380723920000000
 6957.01 0.9379099820000000
 6957.49 0.9377702420000000
 6957.97 0.9376918600000000
 6958.46 0.9377154990000000
 6958.94 0.9377794760000000
 6959.43 0.9379465040000000
 6959.91 0.9382460650000000
 6960.40 0.9386069140000000
 6960.88 0.9390769630000000
 6961.36 0.9396258400000000
 6961.85 0.9402329760000000
 6962.33 0.9408888030000000
 6962.82 0.9415681670000000
 6963.30 0.9422643920000000
 6963.79 0.9429723070000000
 6964.27 0.9436654420000000
 6964.76 0.9443427330000000
 6965.24 0.9450012700000000
 6965.73 0.9456415170000000
 6966.21 0.9462787340000000
 6966.70 0.9469143580000000
 6967.18 0.9475656280000000
 6967.67 0.9482355000000000
 6968.16 0.9489219630000000
 6968.64 0.9496279030000000
 6969.13 0.9503416220000001
 6969.61 0.9510613910000000
 6970.10 0.9517608550000000
 6970.58 0.9524413100000000
 6971.07 0.9530844050000000
 6971.56 0.9536872320000001
 6972.04 0.9542368870000000
 6972.53 0.9547013360000000
 6973.01 0.9550851570000000
 6973.50 0.9553857780000000
 6973.99 0.9556076650000001
 6974.47 0.9557535730000000
 6974.96 0.9558427010000000
 6975.45 0.9558702070000000
 6975.93 0.9558881180000000
 6976.42 0.9559078210000000
 6976.91 0.9559318550000000
 6977.39 0.9559972830000000
 6977.88 0.9560936470000000
 6978.37 0.9562421380000000
 6978.85 0.9564605290000000
 6979.34 0.9567389820000000
 6979.83 0.9570982090000000
 6980.32 0.9574941179999999
 6980.80 0.9579308500000000
 6981.29 0.9583958180000000
 6981.78 0.9588917250000000
 6982.27 0.9593974310000000
 6982.75 0.9599141850000000
 6983.24 0.9604228570000000
 6983.73 0.9609205880000000
 6984.22 0.9614138600000000
 6984.70 0.9619038540000000
 6985.19 0.9623991050000000
 6985.68 0.9628979710000000
 6986.17 0.9634089110000000
 6986.66 0.9639337620000000
 6987.14 0.9644723220000000
 6987.63 0.9650271540000001
 6988.12 0.9655877740000000
 6988.61 0.9661506390000000
 6989.10 0.9667001620000000
 6989.59 0.9672328130000000
 6990.07 0.9677416280000000
 6990.56 0.9682272190000000
 6991.05 0.9686761229999999
 6991.54 0.9690870930000000
 6992.03 0.9694527080000001
 6992.52 0.9697700100000000
 6993.01 0.9700474030000000
 6993.50 0.9702827540000000
 6993.99 0.9704878560000000
 6994.47 0.9706549940000000
 6994.96 0.9708087200000000
 6995.45 0.9709610990000000
 6995.94 0.9711151160000000
 6996.43 0.9712828250000000
 6996.92 0.9714657610000000
 6997.41 0.9716756500000000
 6997.90 0.9719080260000000
 6998.39 0.9721680570000000
 6998.88 0.9724482750000000
 6999.37 0.9727488740000000
 6999.86 0.9730670790000000
 7000.35 0.9733807710000000
 7000.84 0.9736750030000000
 7001.33 0.9739256290000000
 7001.82 0.9741460350000000
 7002.31 0.9743514410000000
 7002.80 0.9745441800000000
 7003.29 0.9747440800000000
 7003.78 0.9749505580000000
 7004.27 0.9751806680000000
 7004.76 0.9754414210000000
 7005.25 0.9757339800000000
 7005.74 0.9760555650000000
 7006.24 0.9764076350000001
 7006.73 0.9768285850000000
 7007.22 0.9773170520000000
 7007.71 0.9778870820000000
 7008.20 0.9785086200000001
 7008.69 0.9791709119999999
 7009.18 0.9798413170000000
 7009.67 0.9805190610000000
 7010.16 0.9811813310000000
 7010.66 0.9818215890000001
 7011.15 0.9824056670000000
 7011.64 0.9829470320000000
 7012.13 0.9834068150000000
 7012.62 0.9837916209999999
 7013.11 0.9841019610000000
 7013.61 0.9843580590000000
 7014.10 0.9845417790000000
 7014.59 0.9846700430000001
 7015.08 0.9847557780000000
 7015.57 0.9847696450000000
 7016.07 0.9847694630000000
 7016.56 0.9847477940000000
 7017.05 0.9847439460000000
 7017.54 0.9847730260000001
 7018.04 0.9848168850000000
 7018.53 0.9849029990000000
 7019.02 0.9850242180000000
 7019.51 0.9851825210000000
 7020.01 0.9853690070000000
 7020.50 0.9855722850000000
 7020.99 0.9857808420000000
 7021.49 0.9859758580000000
 7021.98 0.9861560240000000
 7022.47 0.9863038780000000
 7022.97 0.9864007970000001
 7023.46 0.9864293159999999
 7023.95 0.9864419600000000
 7024.45 0.9863982310000000
 7024.94 0.9862952910000000
 7025.43 0.9861658000000000
 7025.93 0.9860046940000000
 7026.42 0.9858404460000000
 7026.91 0.9856795600000000
 7027.41 0.9855460550000000
 7027.90 0.9854432890000000
 7028.39 0.9854230920000000
 7028.89 0.9854196670000001
 7029.38 0.9854627440000000
 7029.88 0.9855936700000000
 7030.37 0.9857612090000000
 7030.87 0.9859900300000000
 7031.36 0.9862427450000000
 7031.85 0.9865216330000000
 7032.35 0.9867889670000000
 7032.84 0.9870408760000000
 7033.34 0.9872485200000000
 7033.83 0.9874429410000000
 7034.33 0.9875565150000000
 7034.82 0.9876295740000000
 7035.32 0.9876210430000000
 7035.81 0.9875572280000000
 7036.31 0.9874302940000000
 7036.80 0.9872395790000000
 7037.30 0.9870117430000001
 7037.79 0.9867713140000000
 7038.29 0.9865475470000000
 7038.78 0.9863433040000000
 7039.28 0.9861802820000000
 7039.77 0.9860424790000000
 7040.27 0.9859643040000000
 7040.77 0.9859142700000000
 7041.26 0.9859105379999999
 7041.76 0.9859298590000000
 7042.25 0.9859590400000000
 7042.75 0.9860024970000000
 7043.25 0.9860110170000000
 7043.74 0.9860079420000000
 7044.24 0.9859801270000000
 7044.73 0.9858835300000000
 7045.23 0.9857419750000000
 7045.73 0.9855363700000001
 7046.22 0.9852811220000000
 7046.72 0.9849830450000000
 7047.22 0.9846590070000000
 7047.71 0.9843090630000000
 7048.21 0.9839571920000000
 7048.71 0.9836092070000000
 7049.20 0.9832845019999999
 7049.70 0.9829899060000000
 7050.20 0.9827521620000000
 7050.69 0.9825577180000000
 7051.19 0.9824223439999999
 7051.69 0.9823204800000001
 7052.19 0.9822859970000000
 7052.68 0.9822765940000000
 7053.18 0.9822767150000000
 7053.68 0.9822919110000000
 7054.18 0.9822951890000000
 7054.67 0.9822708580000000
 7055.17 0.9822303230000000
 7055.67 0.9821349250000000
 7056.17 0.9819908070000000
 7056.67 0.9817793889999999
 7057.16 0.9815291280000000
 7057.66 0.9812324980000000
 7058.16 0.9809133780000000
 7058.66 0.9805800920000000
 7059.16 0.9802630770000000
 7059.65 0.9799668820000000
 7060.15 0.9797131960000000
 7060.65 0.9795122190000000
 7061.15 0.9793806410000000
 7061.65 0.9792989100000000
 7062.15 0.9792790330000000
 7062.65 0.9793128880000000
 7063.14 0.9793696250000000
 7063.64 0.9794764080000000
 7064.14 0.9795964750000000
 7064.64 0.9797185600000000
 7065.14 0.9798111480000000
 7065.64 0.9798843510000000
 7066.14 0.9799045760000000
 7066.64 0.9798764580000000
 7067.14 0.9797975230000000
 7067.64 0.9796656990000000
 7068.14 0.9794874630000000
 7068.64 0.9792361150000000
 7069.14 0.9789259660000000
 7069.64 0.9785368780000000
 7070.14 0.9781081320000000
 7070.64 0.9776575580000000
 7071.14 0.9771947510000000
 7071.64 0.9767206680000000
 7072.14 0.9762436010000000
 7072.64 0.9757633660000000
 7073.14 0.9752777300000000
 7073.64 0.9747860229999999
 7074.14 0.9742870100000000
 7074.64 0.9737749710000000
 7075.14 0.9732438760000000
 7075.64 0.9726897090000000
 7076.14 0.9721047910000000
 7076.64 0.9714835990000000
 7077.14 0.9708261560000000
 7077.64 0.9701231950000000
 7078.14 0.9693770490000000
 7078.64 0.9685836350000000
 7079.14 0.9677509190000000
 7079.65 0.9668724640000000
 7080.15 0.9659652890000000
 7080.65 0.9650276360000000
 7081.15 0.9640707850000000
 7081.65 0.9630962610000000
 7082.15 0.9621152480000000
 7082.65 0.9611296120000000
 7083.16 0.9601524430000000
 7083.66 0.9591925620000000
 7084.16 0.9582507890000000
 7084.66 0.9573242210000000
 7085.16 0.9564431430000000
 7085.67 0.9556362819999999
 7086.17 0.9547044310000000
 7086.67 0.9535578770000001
 7087.17 0.9523734800000000
 7087.67 0.9511806000000000
 7088.18 0.9499454080000000
 7088.68 0.9486625350000000
 7089.18 0.9473348050000000
 7089.68 0.9459758230000000
 7090.19 0.9445083980000000
 7090.69 0.9428961769999999
 7091.19 0.9412173760000000
 7091.70 0.9394663940000000
 7092.20 0.9376635430000000
 7092.70 0.9358179810000000
 7093.20 0.9339217980000000
 7093.71 0.9319676980000000
 7094.21 0.9299660310000000
 7094.71 0.9279215110000000
 7095.22 0.9259127320000000
 7095.72 0.9239493120000000
 7096.22 0.9219229280000000
 7096.73 0.9198215380000000
 7097.23 0.9177572960000000
 7097.74 0.9157363039999999
 7098.24 0.9136763470000000
 7098.74 0.9115746830000000
 7099.25 0.9094169610000000
 7099.75 0.9072007780000000
 7100.26 0.9049240900000000
 7100.76 0.9025780300000000
 7101.26 0.9001296820000000
 7101.77 0.8975730620000000
 7102.27 0.8948900020000000
 7102.78 0.8920630939999999
 7103.28 0.8891373270000000
 7103.79 0.8861146110000000
 7104.29 0.8829857970000000
 7104.80 0.8797561520000000
 7105.30 0.8763860750000000
 7105.81 0.8728850350000000
 7106.31 0.8692234500000000
 7106.82 0.8654026860000000
 7107.32 0.8614715780000000
 7107.83 0.8574259510000000
 7108.33 0.8533021110000000
 7108.84 0.8490969570000000
 7109.34 0.8448350500000000
 7109.85 0.8405095580000000
 7110.35 0.8361037220000000
 7110.86 0.8316273790000001
 7111.36 0.8271161900000000
 7111.87 0.8225766490000000
 7112.38 0.8180234270000000
 7112.88 0.8134602700000000
 7113.39 0.8088883470000000
 7113.89 0.8043147880000000
 7114.40 0.7997188900000000
 7114.91 0.7950901230000000
 7115.41 0.7903889540000000
 7115.92 0.7856264080000001
 7116.42 0.7807804779999999
 7116.93 0.7758769390000000
 7117.44 0.7708900430000000
 7117.94 0.7658284670000000
 7118.45 0.7606978470000000
 7118.96 0.7554944530000000
 7119.46 0.7502145569999999
 7119.97 0.7448608700000000
 7120.48 0.7394341719999999
 7120.99 0.7339412600000000
 7121.49 0.7283891850000001
 7122.00 0.7227846800000000
 7122.51 0.7171304480000000
 7123.01 0.7114473250000000
 7123.52 0.7057323630000000
 7124.03 0.6999879090000000
 7124.54 0.6942041910000000
 7125.04 0.6883904440000000
 7125.55 0.6825465960000000
 7126.06 0.6766816570000000
 7126.57 0.6707937360000000
 7127.08 0.6648941320000000
 7127.58 0.6589904850000000
 7128.09 0.6530811820000000
 7128.60 0.6471675000000000
 7129.11 0.6412319370000000
 7129.62 0.6352707580000000
 7130.12 0.6292675010000000
 7130.63 0.6232123340000000
 7131.14 0.6171226500000000
 7131.65 0.6110018110000000
 7132.16 0.6048499280000000
 7132.67 0.5986623730000000
 7133.18 0.5924339430000000
 7133.69 0.5861654840000000
 7134.19 0.5798512680000000
 7134.70 0.5734818850000000
 7135.21 0.5670662270000000
 7135.72 0.5606174650000000
 7136.23 0.5541551390000000
 7136.74 0.5476890570000000
 7137.25 0.5412201460000000
 7137.76 0.5347484260000001
 7138.27 0.5282729300000000
 7138.78 0.5217967680000000
 7139.29 0.5153324130000000
 7139.80 0.5088810820000000
 7140.31 0.5024494700000000
 7140.82 0.4960380030000000
 7141.33 0.4896559430000000
 7141.84 0.4833022260000000
 7142.35 0.4769826720000000
 7142.86 0.4706960410000000
 7143.37 0.4644378020000000
 7143.88 0.4582002850000000
 7144.39 0.4519809730000000
 7144.90 0.4457825950000000
 7145.41 0.4396128160000000
 7145.92 0.4334694940000000
 7146.43 0.4273845190000000
 7146.94 0.4213501630000000
 7147.45 0.4153757410000000
 7147.96 0.4094424030000000
 7148.47 0.4035586950000000
 7148.98 0.3977171320000000
 7149.50 0.3919220890000000
 7150.01 0.3861835140000000
 7150.52 0.3805062320000000
 7151.03 0.3748833610000000
 7151.54 0.3693244310000000
 7152.05 0.3638152230000000
 7152.56 0.3583649510000000
 7153.08 0.3529650290000000
 7153.59 0.3476111950000000
 7154.10 0.3423047420000000
 7154.61 0.3370499200000000
 7155.12 0.3318411220000000
 7155.64 0.3266768090000000
 7156.15 0.3215563160000000
 7156.66 0.3164809210000000
 7157.17 0.3114379690000000
 7157.68 0.3064319920000000
 7158.20 0.3014680650000000
 7158.71 0.2965458400000000
 7159.22 0.2916800260000000
 7159.73 0.2868720200000000
 7160.25 0.2821207930000000
 7160.76 0.2774292940000000
 7161.27 0.2728058420000000
 7161.78 0.2682364300000000
 7162.30 0.2637308720000000
 7162.81 0.2592939480000000
 7163.32 0.2549346060000000
 7163.84 0.2506478980000000
 7164.35 0.2464542910000000
 7164.86 0.2423463230000000
 7165.38 0.2383159300000000
 7165.89 0.2343591210000000
 7166.40 0.2304661540000000
 7166.92 0.2266346320000000
 7167.43 0.2228566490000000
 7167.94 0.2191327290000000
 7168.46 0.2154646980000000
 7168.97 0.2118438990000000
 7169.49 0.2082854740000000
 7170.00 0.2047748030000000
 7170.51 0.2013110970000000
 7171.03 0.1978869650000000
 7171.54 0.1945033770000000
 7172.06 0.1911537900000000
 7172.57 0.1878542230000000
 7173.09 0.1845951480000000
 7173.60 0.1813916370000000
 7174.12 0.1782413690000000
 7174.63 0.1751449400000000
 7175.15 0.1721048990000000
 7175.66 0.1691214060000000
 7176.18 0.1661912030000000
 7176.69 0.1633125800000000
 7177.21 0.1604848240000000
 7177.72 0.1577062250000000
 7178.24 0.1549821670000000
 7178.75 0.1523115870000000
 7179.27 0.1496890650000000
 7179.78 0.1471131540000000
 7180.30 0.1445846840000000
 7180.81 0.1421051530000000
 7181.33 0.1396694530000000
 7181.84 0.1372664870000000
 7182.36 0.1349066900000000
 7182.88 0.1325829940000000
 7183.39 0.1302930310000000
 7183.91 0.1280379940000000
 7184.42 0.1258203170000000
 7184.94 0.1236351110000000
 7185.46 0.1214883130000000
 7185.97 0.1193764750000000
 7186.49 0.1172983060000000
 7187.01 0.1152510760000000
 7187.52 0.1132296900000000
 7188.04 0.1112406030000000
 7188.56 0.1092875990000000
 7189.07 0.1073698990000000
 7189.59 0.1054881410000000
 7190.11 0.1036390650000000
 7190.62 0.1018210670000000
 7191.14 0.1000336950000000
 7191.66 0.0982801400000000
 7192.17 0.0965627950000000
 7192.69 0.0948851410000000
 7193.21 0.0932486730000000
 7193.73 0.0916503000000000
 7194.24 0.0900799640000000
 7194.76 0.0885376570000000
 7195.28 0.0870188130000000
 7195.80 0.0855194860000000
 7196.32 0.0840527530000000
 7196.83 0.0826174180000000
 7197.35 0.0812212310000000
 7197.87 0.0798587440000000
 7198.39 0.0785149280000000
 7198.91 0.0771933920000000
 7199.42 0.0759012080000000
 7199.94 0.0746309890000000
 7200.46 0.0733708460000000
 7200.98 0.0721244960000000
 7201.50 0.0708902450000000
 7202.02 0.0696769920000000
 7202.54 0.0684953930000000
 7203.05 0.0673366960000000
 7203.57 0.0662112230000000
 7204.09 0.0651050980000000
 7204.61 0.0640177210000000
 7205.13 0.0629670340000000
 7205.65 0.0619658480000000
 7206.17 0.0609837020000000
 7206.69 0.0600195400000000
 7207.21 0.0590660860000000
 7207.73 0.0581213730000000
 7208.25 0.0571869960000000
 7208.77 0.0562628850000000
 7209.29 0.0553506710000000
 7209.81 0.0544500430000000
 7210.33 0.0535599230000000
 7210.85 0.0526803050000000
 7211.37 0.0518115560000000
 7211.89 0.0509537860000000
 7212.41 0.0501144060000000
 7212.93 0.0492916210000000
 7213.45 0.0484921450000000
 7213.97 0.0477113010000000
 7214.49 0.0469509200000000
 7215.01 0.0462110320000000
 7215.53 0.0454922550000000
 7216.05 0.0447903070000000
 7216.57 0.0441074540000000
 7217.09 0.0434346840000000
 7217.61 0.0427728700000000
 7218.13 0.0421324820000000
 7218.65 0.0415189570000000
 7219.17 0.0409139000000000
 7219.70 0.0403147060000000
 7220.22 0.0397185030000000
 7220.74 0.0391246450000000
 7221.26 0.0385355360000000
 7221.78 0.0379511640000000
 7222.30 0.0373721100000000
 7222.82 0.0367987520000000
 7223.35 0.0362337440000000
 7223.87 0.0356769050000000
 7224.39 0.0351306180000000
 7224.91 0.0345945550000000
 7225.43 0.0340704640000000
 7225.96 0.0335569610000000
 7226.48 0.0330582410000000
 7227.00 0.0325702490000000
 7227.52 0.0320992030000000
 7228.04 0.0316443870000000
 7228.57 0.0312088150000000
 7229.09 0.0307821050000000
 7229.61 0.0303636750000000
 7230.14 0.0299508720000000
 7230.66 0.0295441740000000
 7231.18 0.0291404110000000
 7231.70 0.0287392190000000
 7232.23 0.0283380740000000
 7232.75 0.0279368240000000
 7233.27 0.0275355070000000
 7233.80 0.0271341370000000
 7234.32 0.0267333890000000
 7234.84 0.0263334650000000
 7235.37 0.0259356160000000
 7235.89 0.0255403910000000
 7236.41 0.0251503840000000
 7236.94 0.0247652720000000
 7237.46 0.0243876810000000
 7237.98 0.0240183010000000
 7238.51 0.0236596680000000
 7239.03 0.0233092830000000
 7239.56 0.0229715330000000
 7240.08 0.0226438330000000
 7240.61 0.0223291330000000
 7241.13 0.0220256750000000
 7241.65 0.0217323040000000
 7242.18 0.0214471990000000
 7242.70 0.0211728450000000
 7243.23 0.0209076940000000
 7243.75 0.0206511880000000
 7244.28 0.0203956130000000
 7244.80 0.0201408220000000
 7245.33 0.0198856140000000
 7245.85 0.0196300350000000
 7246.38 0.0193736200000000
 7246.90 0.0191164980000000
 7247.43 0.0188586830000000
 7247.95 0.0186005960000000
 7248.48 0.0183429580000000
 7249.00 0.0180867790000000
 7249.53 0.0178332170000000
 7250.05 0.0175833580000000
 7250.58 0.0173389580000000
 7251.11 0.0170996680000000
 7251.63 0.0168672870000000
 7252.16 0.0166410630000000
 7252.68 0.0164240080000000
 7253.21 0.0162146630000000
 7253.74 0.0160131480000000
 7254.26 0.0158185720000000
 7254.79 0.0156305500000000
 7255.31 0.0154471010000000
 7255.84 0.0152677620000000
 7256.37 0.0150899110000000
 7256.89 0.0149132430000000
 7257.42 0.0147356780000000
 7257.95 0.0145571410000000
 7258.47 0.0143767280000000
 7259.00 0.0141941570000000
 7259.53 0.0140084720000000
 7260.06 0.0138206450000000
 7260.58 0.0136304530000000
 7261.11 0.0134393330000000
 7261.64 0.0132480660000000
 7262.16 0.0130582160000000
 7262.69 0.0128707350000000
 7263.22 0.0126877030000000
 7263.75 0.0125089010000000
 7264.27 0.0123371090000000
 7264.80 0.0121710820000000
 7265.33 0.0120126570000000
 7265.86 0.0118611860000000
 7266.39 0.0117165070000000
 7266.91 0.0115781380000000
 7267.44 0.0114460590000000
 7267.97 0.0113189970000000
 7268.50 0.0111957260000000
 7269.03 0.0110747720000000
 7269.56 0.0109548420000000
 7270.08 0.0108344590000000
 7270.61 0.0107129160000000
 7271.14 0.0105879500000000
 7271.67 0.0104579440000000
 7272.20 0.0103251020000000
 7272.73 0.0101898030000000
 7273.26 0.0100536850000000
 7273.79 0.0099171170000000
 7274.31 0.0097809390000000
 7274.84 0.0096459660000000
 7275.37 0.0095148620000000
 7275.90 0.0093881630000000
 7276.43 0.0092681440000000
 7276.96 0.0091538450000000
 7277.49 0.0090458180000000
 7278.02 0.0089438460000000
 7278.55 0.0088481620000000
 7279.08 0.0087577630000000
 7279.61 0.0086726750000000
 7280.14 0.0085897650000000
 7280.67 0.0085082250000000
 7281.20 0.0084262690000000
 7281.73 0.0083436690000000
 7282.26 0.0082575990000000
 7282.79 0.0081676990000000
 7283.32 0.0080730170000000
 7283.85 0.0079732400000000
 7284.38 0.0078695510000000
 7284.91 0.0077629330000000
 7285.44 0.0076537310000000
 7285.97 0.0075429260000000
 7286.51 0.0074322150000000
 7287.04 0.0073236110000000
 7287.57 0.0072187560000000
 7288.10 0.0071181950000000
 7288.63 0.0070227010000000
 7289.16 0.0069345140000000
 7289.69 0.0068535340000000
 7290.22 0.0067807690000000
 7290.76 0.0067153840000000
 7291.29 0.0066557850000000
 7291.82 0.0066011670000000
 7292.35 0.0065503150000000
 7292.88 0.0065023700000000
 7293.41 0.0064547110000000
 7293.95 0.0064069340000000
 7294.48 0.0063562540000000
 7295.01 0.0063033360000000
 7295.54 0.0062467910000000
 7296.07 0.0061870830000000
 7296.61 0.0061230840000000
 7297.14 0.0060554610000000
 7297.67 0.0059837060000000
 7298.20 0.0059107190000000
 7298.74 0.0058371580000000
 7299.27 0.0057645070000000
 7299.80 0.0056929430000000
 7300.34 0.0056249690000000
 7300.87 0.0055605720000000
 7301.40 0.0055016390000000
 7301.94 0.0054473290000000
 7302.47 0.0053975580000000
 7303.00 0.0053514500000000
 7303.53 0.0053090270000000
 7304.07 0.0052689390000000
 7304.60 0.0052306040000000
 7305.14 0.0051919390000000
 7305.67 0.0051524130000000
 7306.20 0.0051108230000000
 7306.74 0.0050664290000000
 7307.27 0.0050181880000000
 7307.80 0.0049662340000000
 7308.34 0.0049099200000000
 7308.87 0.0048493770000000
 7309.41 0.0047866400000000
 7309.94 0.0047219810000000
 7310.48 0.0046569980000000
 7311.01 0.0045927500000000
 7311.54 0.0045304530000000
 7312.08 0.0044714180000000
 7312.61 0.0044164920000000
 7313.15 0.0043660130000000
 7313.68 0.0043203150000000
 7314.22 0.0042800110000000
 7314.75 0.0042441300000000
 7315.29 0.0042128150000000
 7315.82 0.0041852000000000
 7316.36 0.0041592860000000
 7316.89 0.0041345650000000
 7317.43 0.0041092010000000
 7317.97 0.0040827510000000
 7318.50 0.0040526770000000
 7319.04 0.0040190640000000
 7319.57 0.0039809610000000
 7320.11 0.0039393420000000
 7320.64 0.0038938710000000
 7321.18 0.0038455690000000
 7321.72 0.0037943650000000
 7322.25 0.0037422500000000
 7322.79 0.0036896580000000
 7323.32 0.0036391530000000
 7323.86 0.0035905730000000
 7324.40 0.0035458360000000
 7324.93 0.0035050380000000
 7325.47 0.0034709290000000
 7326.01 0.0034427560000000
 7326.54 0.0034208810000000
 7327.08 0.0034039090000000
 7327.62 0.0033910050000000
 7328.15 0.0033807990000000
 7328.69 0.0033728530000000
 7329.23 0.0033644370000000
 7329.77 0.0033551610000000
 7330.30 0.0033432530000000
 7330.84 0.0033276090000000
 7331.38 0.0033077600000000
 7331.92 0.0032831920000000
 7332.45 0.0032535800000000
 7332.99 0.0032189410000000
 7333.53 0.0031799240000000
 7334.07 0.0031382050000000
 7334.60 0.0030946250000000
 7335.14 0.0030511730000000
 7335.68 0.0030082440000000
 7336.22 0.0029685920000000
 7336.76 0.0029322130000000
 7337.30 0.0029011760000000
 7337.83 0.0028746700000000
 7338.37 0.0028538040000000
 7338.91 0.0028375530000000
 7339.45 0.0028269690000000
 7339.99 0.0028200230000000
 7340.53 0.0028166220000000
 7341.07 0.0028139870000000
 7341.60 0.0028114420000000
 7342.14 0.0028079290000000
 7342.68 0.0028014450000000
 7343.22 0.0027916660000000
 7343.76 0.0027758690000000
 7344.30 0.0027556350000000
 7344.84 0.0027298420000000
 7345.38 0.0026998700000000
 7345.92 0.0026661940000000
 7346.46 0.0026292460000000
 7347.00 0.0025904590000000
 7347.54 0.0025512500000000
 7348.08 0.0025133870000000
 7348.62 0.0024775610000000
 7349.16 0.0024457080000000
 7349.70 0.0024174850000000
 7350.24 0.0023959280000000
 7350.78 0.0023793700000000
 7351.32 0.0023688060000000
 7351.86 0.0023618280000000
 7352.40 0.0023592350000000
 7352.94 0.0023580580000000
 7353.48 0.0023580040000000
 7354.02 0.0023577580000000
 7354.56 0.0023544830000000
 7355.10 0.0023484580000000
 7355.65 0.0023376860000000
 7356.19 0.0023220440000000
 7356.73 0.0023008310000000
 7357.27 0.0022739830000000
 7357.81 0.0022401090000000
 7358.35 0.0022029550000000
 7358.89 0.0021630480000000
 7359.43 0.0021220530000000
 7359.98 0.0020809700000000
 7360.52 0.0020418150000000
 7361.06 0.0020062430000000
 7361.60 0.0019749510000000
 7362.14 0.0019496400000000
 7362.69 0.0019290050000000
 7363.23 0.0019166250000000
 7363.77 0.0019088670000000
 7364.31 0.0019088100000000
 7364.85 0.0019132880000000
 7365.40 0.0019207370000000
 7365.94 0.0019310960000000
 7366.48 0.0019420960000000
 7367.03 0.0019514470000000
 7367.57 0.0019588410000000
 7368.11 0.0019615310000000
 7368.65 0.0019596790000000
 7369.20 0.0019553460000000
 7369.74 0.0019439810000000
 7370.28 0.0019284680000000
 7370.83 0.0019082910000000
 7371.37 0.0018851340000000
 7371.91 0.0018590960000000
 7372.46 0.0018326950000000
 7373.00 0.0018071370000000
 7373.54 0.0017832190000000
 7374.09 0.0017631990000000
 7374.63 0.0017471200000000
 7375.18 0.0017370290000000
 7375.72 0.0017305720000000
 7376.26 0.0017298010000000
 7376.81 0.0017322420000000
 7377.35 0.0017375760000000
 7377.90 0.0017464260000000
 7378.44 0.0017558140000000
 7378.98 0.0017642690000000
 7379.53 0.0017714830000000
 7380.07 0.0017746420000000
 7380.62 0.0017729980000000
 7381.16 0.0017686790000000
 7381.71 0.0017546450000000
 7382.25 0.0017359520000000
 7382.80 0.0017121100000000
 7383.34 0.0016844820000000
 7383.89 0.0016531730000000
 7384.43 0.0016196350000000
 7384.98 0.0015855710000000
 7385.52 0.0015523540000000
 7386.07 0.0015210910000000
 7386.62 0.0014931530000000
 7387.16 0.0014705990000000
 7387.71 0.0014520610000000
 7388.25 0.0014412830000000
 7388.80 0.0014348030000000
 7389.34 0.0014349930000000
 7389.89 0.0014381080000000
 7390.44 0.0014446510000000
 7390.98 0.0014540340000000
 7391.53 0.0014642180000000
 7392.08 0.0014742610000000
 7392.62 0.0014835240000000
 7393.17 0.0014897920000000
 7393.72 0.0014933840000000
 7394.26 0.0014933740000000
 7394.81 0.0014890570000000
 7395.36 0.0014818360000000
 7395.90 0.0014705710000000
 7396.45 0.0014572150000000
 7397.00 0.0014427080000000
 7397.54 0.0014279750000000
 7398.09 0.0014140660000000
 7398.64 0.0014015920000000
 7399.19 0.0013922360000000
 7399.73 0.0013849460000000
 7400.28 0.0013837870000000
 7400.83 0.0013842770000000
 7401.38 0.0013873900000000
 7401.92 0.0013956830000000
 7402.47 0.0014062200000000
 7403.02 0.0014178810000000
 7403.57 0.0014301900000000
 7404.12 0.0014412870000000
 7404.66 0.0014508920000000
 7405.21 0.0014565170000000
 7405.76 0.0014593270000000
 7406.31 0.0014585800000000
 7406.86 0.0014529820000000
 7407.41 0.0014437340000000
 7407.96 0.0014302920000000
 7408.50 0.0014138520000000
 7409.05 0.0013939130000000
 7409.60 0.0013733450000000
 7410.15 0.0013241820000000
 7410.70 0.0011341680000000
 7411.25 0.0010771720000000
 7411.80 0.0010746460000000
 7412.35 0.0010686990000000
 7412.90 0.0010594130000000
 7413.45 0.0010531500000000
 7414.00 0.0010494560000000
 7414.55 0.0010489740000000
 7415.10 0.0010489160000000
 7415.65 0.0010508330000000
 7416.20 0.0010524250000000
 7416.75 0.0010533160000000
 7417.30 0.0010526360000000
 7417.85 0.0010487910000000
 7418.40 0.0010422950000000
 7418.95 0.0010324630000000
 7419.50 0.0010194260000000
 7420.05 0.0010040680000000
 7420.60 0.0009866490000000
