# HIMAWARI9 relative spectral response function for band 10
# (see http://www.data.jma.go.jp/mscweb/en/himawari89/space_segment/spsg_ahi.html#band)
# converted from 
# http://www.data.jma.go.jp/mscweb/en/himawari89/space_segment/srf_201309/AHI-08_SpectralResponsivity.zip
# http://www.data.jma.go.jp/mscweb/en/himawari89/space_segment/srf_201310/AHI-09_SpectralResponsivity.zip
# 
# LAMBDA   RSR
# 
 7157.68 0.0009129789739000
 7158.20 0.0010268159810000
 7158.71 0.0013233538360000
 7159.22 0.0014600624210000
 7159.73 0.0014912995450000
 7160.25 0.0015258675630000
 7160.76 0.0015653347260000
 7161.27 0.0016057773100000
 7161.78 0.0016470426050000
 7162.30 0.0016889858010000
 7162.81 0.0017316528090000
 7163.32 0.0017747532350000
 7163.84 0.0018182674890000
 7164.35 0.0018623113700000
 7164.86 0.0019069198780000
 7165.38 0.0019522462610000
 7165.89 0.0019983538220000
 7166.40 0.0020454481780000
 7166.92 0.0020936308550000
 7167.43 0.0021431770890000
 7167.94 0.0021941820540000
 7168.46 0.0022469999150000
 7168.97 0.0023013799260000
 7169.49 0.0023579503900000
 7170.00 0.0024161569450000
 7170.51 0.0024767058690000
 7171.03 0.0025389161060000
 7171.54 0.0026033342650000
 7172.06 0.0026693244500000
 7172.57 0.0027374573500000
 7173.09 0.0028069573840000
 7173.60 0.0028781561300000
 7174.12 0.0029506960260000
 7174.63 0.0030245428680000
 7175.15 0.0030996897140000
 7175.66 0.0031761049360000
 7176.18 0.0032541140870000
 7176.69 0.0033337970450000
 7177.21 0.0034153889620000
 7177.72 0.0034989415950000
 7178.24 0.0035852073190000
 7178.75 0.0036743545560000
 7179.27 0.0037670056930000
 7179.78 0.0038633630330000
 7180.30 0.0039637633060000
 7180.81 0.0040686400040000
 7181.33 0.0041789260300000
 7181.84 0.0042942579980000
 7182.36 0.0044158452950000
 7182.88 0.0045429533730000
 7183.39 0.0046762423130000
 7183.91 0.0048159812370000
 7184.42 0.0049624264630000
 7184.94 0.0051147817520000
 7185.46 0.0052738519000000
 7185.97 0.0054395449550000
 7186.49 0.0056117699750000
 7187.01 0.0057906576470000
 7187.52 0.0059761773900000
 7188.04 0.0061686353250000
 7188.56 0.0063682835700000
 7189.07 0.0065754400700000
 7189.59 0.0067904119080000
 7190.11 0.0070138062800000
 7190.62 0.0072461831610000
 7191.14 0.0074880948490000
 7191.66 0.0077405197060000
 7192.17 0.0080023303920000
 7192.69 0.0082765767190000
 7193.21 0.0085637722890000
 7193.73 0.0088636140980000
 7194.24 0.0091787406290000
 7194.76 0.0095110135240000
 7195.28 0.0098599731170000
 7195.80 0.0102237760400000
 7196.32 0.0106053910800000
 7196.83 0.0110055746300000
 7197.35 0.0114244604800000
 7197.87 0.0118631746100000
 7198.39 0.0123216777700000
 7198.91 0.0128015874300000
 7199.42 0.0133046188800000
 7199.94 0.0138317762400000
 7200.46 0.0143836776900000
 7200.98 0.0149616241200000
 7201.50 0.0155667329800000
 7202.02 0.0161998405000000
 7202.54 0.0168614117100000
 7203.05 0.0175540568300000
 7203.57 0.0182843373000000
 7204.09 0.0190505413800000
 7204.61 0.0198603360500000
 7205.13 0.0207087293100000
 7205.65 0.0216053746500000
 7206.17 0.0225376749300000
 7206.69 0.0235185628400000
 7207.21 0.0245442885900000
 7207.73 0.0256175373200000
 7208.25 0.0267387287400000
 7208.77 0.0279113028700000
 7209.29 0.0291533758000000
 7209.81 0.0304689496100000
 7210.33 0.0318422226400000
 7210.85 0.0332792204200000
 7211.37 0.0347903600300000
 7211.89 0.0363727589300000
 7212.41 0.0380325647200000
 7212.93 0.0397682281200000
 7213.45 0.0415953627600000
 7213.97 0.0435107055000000
 7214.49 0.0455243618000000
 7215.01 0.0476255629500000
 7215.53 0.0498447795400000
 7216.05 0.0521738712300000
 7216.57 0.0546306584700000
 7217.09 0.0571849794700000
 7217.61 0.0598688495100000
 7218.13 0.0626774843900000
 7218.65 0.0656093252200000
 7219.17 0.0686676802300000
 7219.70 0.0718663264900000
 7220.22 0.0752065749600000
 7220.74 0.0786982256800000
 7221.26 0.0823349987600000
 7221.78 0.0861231579400000
 7222.30 0.0900397844500000
 7222.82 0.0940956516900000
 7223.35 0.0982983353500000
 7223.87 0.1026461566000000
 7224.39 0.1071476519000000
 7224.91 0.1118084347000000
 7225.43 0.1166361011000000
 7225.96 0.1216267872000000
 7226.48 0.1267927659000000
 7227.00 0.1321199235000000
 7227.52 0.1376004732000000
 7228.04 0.1432558599000000
 7228.57 0.1491185001000000
 7229.09 0.1551454127000000
 7229.61 0.1614360709000000
 7230.14 0.1678633830000000
 7230.66 0.1744150873000000
 7231.18 0.1810924968000000
 7231.70 0.1878969739000000
 7232.23 0.1948799109000000
 7232.75 0.2020906314000000
 7233.27 0.2094591060000000
 7233.80 0.2169717486000000
 7234.32 0.2245699346000000
 7234.84 0.2322651551000000
 7235.37 0.2400979847000000
 7235.89 0.2480718039000000
 7236.41 0.2562205357000000
 7236.94 0.2645113144000000
 7237.46 0.2728758828000000
 7237.98 0.2813231837000000
 7238.51 0.2898919150000000
 7239.03 0.2985406897000000
 7239.56 0.3072985540000000
 7240.08 0.3161224244000000
 7240.61 0.3250054423000000
 7241.13 0.3340109960000000
 7241.65 0.3431856265000000
 7242.18 0.3524054359000000
 7242.70 0.3616674539000000
 7243.23 0.3710148236000000
 7243.75 0.3804574958000000
 7244.28 0.3899463193000000
 7244.80 0.3994801504000000
 7245.33 0.4090359737000000
 7245.85 0.4186223003000000
 7246.38 0.4282839121000000
 7246.90 0.4380058204000000
 7247.43 0.4477550668000000
 7247.95 0.4575406831000000
 7248.48 0.4673756353000000
 7249.00 0.4772359723000000
 7249.53 0.4870942665000000
 7250.05 0.4969721740000000
 7250.58 0.5068730050000000
 7251.11 0.5167927849000000
 7251.63 0.5267430134000000
 7252.16 0.5366856011000000
 7252.68 0.5466052599000000
 7253.21 0.5565208957000000
 7253.74 0.5664383014000000
 7254.26 0.5763319770000001
 7254.79 0.5862014974000000
 7255.31 0.5960585286000000
 7255.84 0.6059056175000000
 7256.37 0.6157643705000000
 7256.89 0.6256321696000000
 7257.42 0.6355196263000000
 7257.95 0.6454006078000000
 7258.47 0.6552215672000000
 7259.00 0.6649979626000000
 7259.53 0.6747423602000000
 7260.06 0.6844205409000000
 7260.58 0.6939898584000000
 7261.11 0.7035295708000000
 7261.64 0.7130934633000000
 7262.16 0.7226533595000000
 7262.69 0.7321907370000000
 7263.22 0.7416567290000000
 7263.75 0.7510683701000000
 7264.27 0.7603278932999999
 7264.80 0.7694627429999999
 7265.33 0.7785292846000000
 7265.86 0.7875162819000000
 7266.39 0.7963608474000000
 7266.91 0.8050881517000000
 7267.44 0.8137511607000000
 7267.97 0.8223148955000000
 7268.50 0.8307496948000000
 7269.03 0.8390223823000000
 7269.56 0.8471228240999999
 7270.08 0.8549505198000000
 7270.61 0.8625393844000000
 7271.14 0.8694908223000000
 7271.67 0.8756948682000000
 7272.20 0.8814988289000000
 7272.73 0.8869485298999999
 7273.26 0.8920804715000000
 7273.79 0.8969870790000000
 7274.31 0.9016160512000000
 7274.84 0.9059740085000000
 7275.37 0.9100273094000000
 7275.90 0.9138021606000000
 7276.43 0.9172758393000000
 7276.96 0.9204951428000000
 7277.49 0.9234361254000000
 7278.02 0.9260980189000000
 7278.55 0.9284779923000001
 7279.08 0.9305761230000000
 7279.61 0.9324132700000000
 7280.14 0.9339985748000000
 7280.67 0.9353665001000000
 7281.20 0.9365394628000000
 7281.73 0.9375517130000000
 7282.26 0.9384306582000000
 7282.79 0.9392007286000000
 7283.32 0.9398860317000000
 7283.85 0.9405022910000000
 7284.38 0.9410693930000000
 7284.91 0.9415887731000000
 7285.44 0.9420701128000000
 7285.97 0.9425285584999999
 7286.51 0.9429737956000001
 7287.04 0.9434101340000000
 7287.57 0.9438316414000000
 7288.10 0.9442369070000000
 7288.63 0.9446246448000000
 7289.16 0.9449972557000000
 7289.69 0.9453558627999999
 7290.22 0.9456995854000000
 7290.76 0.9460292903999999
 7291.29 0.9463402391000000
 7291.82 0.9466342004000000
 7292.35 0.9469157917000000
 7292.88 0.9471873599000000
 7293.41 0.9474567422000000
 7293.95 0.9477264450000000
 7294.48 0.9480084430000000
 7295.01 0.9483088204000000
 7295.54 0.9486420925000000
 7296.07 0.9490069621000000
 7296.61 0.9494319534000000
 7297.14 0.9499157038000000
 7297.67 0.9504786417000000
 7298.20 0.9511124084000000
 7298.74 0.9518359691000000
 7299.27 0.9526489205000001
 7299.80 0.9535460761000000
 7300.34 0.9545207048000000
 7300.87 0.9555770187000000
 7301.40 0.9566981220000000
 7301.94 0.9578855298000000
 7302.47 0.9591279891000000
 7303.00 0.9604187993000000
 7303.53 0.9617507306999999
 7304.07 0.9631115964000000
 7304.60 0.9644900329000000
 7305.14 0.9658715037000000
 7305.67 0.9672530046000000
 7306.20 0.9686245449000001
 7306.74 0.9699843267000000
 7307.27 0.9713269135000000
 7307.80 0.9726520034000000
 7308.34 0.9739705078999999
 7308.87 0.9752865252000000
 7309.41 0.9765855879000001
 7309.94 0.9778789069000000
 7310.48 0.9791913870000000
 7311.01 0.9804942665000000
 7311.54 0.9818072295000000
 7312.08 0.9830612674000000
 7312.61 0.9842221182000001
 7313.15 0.9852704735000000
 7313.68 0.9861943457000000
 7314.22 0.9870789290000000
 7314.75 0.9879394710000000
 7315.29 0.9887752630000000
 7315.82 0.9895852596000000
 7316.36 0.9903461673000000
 7316.89 0.9910660147000000
 7317.43 0.9917548661000000
 7317.97 0.9924141811000000
 7318.50 0.9930486157000000
 7319.04 0.9936541822000000
 7319.57 0.9942043206000000
 7320.11 0.9946657473000000
 7320.64 0.9950604199999999
 7321.18 0.9953732931000000
 7321.72 0.9956176314000000
 7322.25 0.9958102116000001
 7322.79 0.9959235702000000
 7323.32 0.9959381153000000
 7323.86 0.9958766766000000
 7324.40 0.9957402029000000
 7324.93 0.9955273462999999
 7325.47 0.9952642907000000
 7326.01 0.9949553424000001
 7326.54 0.9946137536000000
 7327.08 0.9942521788000001
 7327.62 0.9938800929000000
 7328.15 0.9935162968000000
 7328.69 0.9931647770000001
 7329.23 0.9928496861000000
 7329.77 0.9925692564000000
 7330.30 0.9923256866000000
 7330.84 0.9921130123000000
 7331.38 0.9919547037000001
 7331.92 0.9918668485000000
 7332.45 0.9918819547000000
 7332.99 0.9919287704999999
 7333.53 0.9920134622000000
 7334.07 0.9921169882000000
 7334.60 0.9922447592000000
 7335.14 0.9924374923000000
 7335.68 0.9927035850000000
 7336.22 0.9930106674000000
 7336.76 0.9933646723000000
 7337.30 0.9937302595000000
 7337.83 0.9941046031000000
 7338.37 0.9944649953000000
 7338.91 0.9948019625000000
 7339.45 0.9950777825000000
 7339.99 0.9953073418000000
 7340.53 0.9954926122000000
 7341.07 0.9956419088000000
 7341.60 0.9957823884000000
 7342.14 0.9958284590000001
 7342.68 0.9958054088000000
 7343.22 0.9957067281000000
 7343.76 0.9955347698000000
 7344.30 0.9953193241000000
 7344.84 0.9950513989000001
 7345.38 0.9947552951999999
 7345.92 0.9944487556000000
 7346.46 0.9941382428000000
 7347.00 0.9938244917000000
 7347.54 0.9935069632000000
 7348.08 0.9931926979000000
 7348.62 0.9928804663000000
 7349.16 0.9925944061999999
 7349.70 0.9923362544000000
 7350.24 0.9921236938000000
 7350.78 0.9919483971000000
 7351.32 0.9918160281000000
 7351.86 0.9917193411000000
 7352.40 0.9916975103000000
 7352.94 0.9916897958000001
 7353.48 0.9917398476000000
 7354.02 0.9918560864000000
 7354.56 0.9920222984000000
 7355.10 0.9922329061000000
 7355.65 0.9924755794000000
 7356.19 0.9927247933000000
 7356.73 0.9929789936000000
 7357.27 0.9932319941000000
 7357.81 0.9934838051000000
 7358.35 0.9937448409000000
 7358.89 0.9940182029000000
 7359.43 0.9943015620000000
 7359.98 0.9945991273000000
 7360.52 0.9949123190000000
 7361.06 0.9952431854000000
 7361.60 0.9955961011000000
 7362.14 0.9959688631000000
 7362.69 0.9963639784000000
 7363.23 0.9967675092000000
 7363.77 0.9971778126000000
 7364.31 0.9975677397000000
 7364.85 0.9979403959000001
 7365.40 0.9983069298000000
 7365.94 0.9986733045000000
 7366.48 0.9990436759000000
 7367.03 0.9993990407000000
 7367.57 0.9998011683000000
 7368.11 0.9999824134000000
 7368.65 0.9999972305000000
 7369.20 0.9999776366000001
 7369.74 0.9997949663000000
 7370.28 0.9995956195000000
 7370.83 0.9993790198000000
 7371.37 0.9991342796000000
 7371.91 0.9988595007000000
 7372.46 0.9985690520000000
 7373.00 0.9982653457000000
 7373.54 0.9979477007000001
 7374.09 0.9976183341000000
 7374.63 0.9972784560000000
 7375.18 0.9969289721000000
 7375.72 0.9965696813000000
 7376.26 0.9962028774000000
 7376.81 0.9958177764000000
 7377.35 0.9954129602000000
 7377.90 0.9949903178000000
 7378.44 0.9945516232000000
 7378.98 0.9940962608000000
 7379.53 0.9936195776000000
 7380.07 0.9931393945000000
 7380.62 0.9926645913000000
 7381.16 0.9922012444000000
 7381.71 0.9917532265000000
 7382.25 0.9913088289999999
 7382.80 0.9908761049000000
 7383.34 0.9904409892000000
 7383.89 0.9900011166000000
 7384.43 0.9895619186000000
 7384.98 0.9891234269000000
 7385.52 0.9886840896000000
 7386.07 0.9882390844000000
 7386.62 0.9877823327000000
 7387.16 0.9873094357000000
 7387.71 0.9868223877000000
 7388.25 0.9863052364000000
 7388.80 0.9857529803000000
 7389.34 0.9851536197000000
 7389.89 0.9845041587000000
 7390.44 0.9837976657000000
 7390.98 0.9830412045000000
 7391.53 0.9822346919000000
 7392.08 0.9813843638000000
 7392.62 0.9804830688000000
 7393.17 0.9795376424000000
 7393.72 0.9785440503000000
 7394.26 0.9775087287000001
 7394.81 0.9764328726000000
 7395.36 0.9753176500000000
 7395.90 0.9741673373000000
 7396.45 0.9729817112000000
 7397.00 0.9717707918000000
 7397.54 0.9705261144000000
 7398.09 0.9692567078000000
 7398.64 0.9679614149000000
 7399.19 0.9666261721000000
 7399.73 0.9652458518000000
 7400.28 0.9638040012000000
 7400.83 0.9622946680000000
 7401.38 0.9606981172000000
 7401.92 0.9590169562000000
 7402.47 0.9572521180000000
 7403.02 0.9553968320000000
 7403.57 0.9534500937000000
 7404.12 0.9514202434000000
 7404.66 0.9492964412000000
 7405.21 0.9470918031000000
 7405.76 0.9448001420000000
 7406.31 0.9424146117000000
 7406.86 0.9399447220000000
 7407.41 0.9373775755000000
 7407.96 0.9347261513000000
 7408.50 0.9319617413000000
 7409.05 0.9291500484000000
 7409.60 0.9263081437000000
 7410.15 0.9237047070000000
 7410.70 0.9216787450000000
 7411.25 0.9168376553000001
 7411.80 0.9046627965000000
 7412.35 0.8926614521000000
 7412.90 0.8812579274000000
 7413.45 0.8740255380000000
 7414.00 0.8680901653000000
 7414.55 0.8615551972000000
 7415.10 0.8549075793000001
 7415.65 0.8481725415000000
 7416.20 0.8412976998000000
 7416.75 0.8342553716000000
 7417.30 0.8271727605000000
 7417.85 0.8200400252000000
 7418.40 0.8127277871000000
 7418.95 0.8052959752000000
 7419.50 0.7978010648000000
 7420.05 0.7901950032000000
 7420.60 0.7823751954000000
 7421.15 0.7744517389000000
 7421.70 0.7664795083000000
 7422.25 0.7583854655000000
 7422.80 0.7501589209000000
 7423.35 0.7418600932000000
 7423.90 0.7334713002000000
 7424.46 0.7249263954000000
 7425.01 0.7162613681000000
 7425.56 0.7075247333000000
 7426.11 0.6986750704000000
 7426.66 0.6896677985000000
 7427.21 0.6805587538000000
 7427.76 0.6713802773000001
 7428.32 0.6620666280000000
 7428.87 0.6526247160999999
 7429.42 0.6431204489000000
 7429.97 0.6335277985000000
 7430.52 0.6238044831000000
 7431.08 0.6139784504000000
 7431.63 0.6040642552000000
 7432.18 0.5940623040000000
 7432.73 0.5839704979000000
 7433.29 0.5738043826000000
 7433.84 0.5635644807000000
 7434.39 0.5532769792000000
 7434.94 0.5429360191000000
 7435.50 0.5325194656000000
 7436.05 0.5220543690000000
 7436.60 0.5115679657000000
 7437.16 0.5010411804000000
 7437.71 0.4904652816000000
 7438.26 0.4798758843000000
 7438.82 0.4692807209000000
 7439.37 0.4586906487000000
 7439.92 0.4481067957000000
 7440.48 0.4375330714000000
 7441.03 0.4269691316000000
 7441.58 0.4164142122000000
 7442.14 0.4058898543000000
 7442.69 0.3954218191000000
 7443.25 0.3850034804000000
 7443.80 0.3746366017000000
 7444.35 0.3643191574000000
 7444.91 0.3540536108000000
 7445.46 0.3438678608000000
 7446.02 0.3337742850000000
 7446.57 0.3237932890000000
 7447.13 0.3139171620000000
 7447.68 0.3041523964000000
 7448.23 0.2944953355000000
 7448.79 0.2849444519000000
 7449.34 0.2755324842000000
 7449.90 0.2662559622000000
 7450.45 0.2571501290000000
 7451.01 0.2482145812000000
 7451.56 0.2394452717000000
 7452.12 0.2308343498000000
 7452.68 0.2224085736000000
 7453.23 0.2141663655000000
 7453.79 0.2061048225000000
 7454.34 0.1981903652000000
 7454.90 0.1904631927000000
 7455.45 0.1829725518000000
 7456.01 0.1757017207000000
 7456.57 0.1686953637000000
 7457.12 0.1619010513000000
 7457.68 0.1553055515000000
 7458.23 0.1489081318000000
 7458.79 0.1427041082000000
 7459.35 0.1367266862000000
 7459.90 0.1309640318000000
 7460.46 0.1254269544000000
 7461.02 0.1200741982000000
 7461.57 0.1149548867000000
 7462.13 0.1100200279000000
 7462.69 0.1052988272000000
 7463.24 0.1007610698000000
 7463.80 0.0963922783500000
 7464.36 0.0921994512800000
 7464.91 0.0881736227100000
 7465.47 0.0843221419600000
 7466.03 0.0806267251800000
 7466.59 0.0771039253000000
 7467.14 0.0737354309000000
 7467.70 0.0704990070400000
 7468.26 0.0674004937500000
 7468.82 0.0644361172400000
 7469.38 0.0616027088000000
 7469.93 0.0588864520700000
 7470.49 0.0562889671200000
 7471.05 0.0538102295600000
 7471.61 0.0514505953800000
 7472.17 0.0491944441100000
 7472.72 0.0470441719700000
 7473.28 0.0449999887000000
 7473.84 0.0430586260200000
 7474.40 0.0412303404500000
 7474.96 0.0394935981400000
 7475.52 0.0378471736900000
 7476.08 0.0362763223700000
 7476.64 0.0347790071100000
 7477.19 0.0333504979300000
 7477.75 0.0319879562500000
 7478.31 0.0306918222300000
 7478.87 0.0294553716700000
 7479.43 0.0282770599600000
 7479.99 0.0271443943600000
 7480.55 0.0260652949100000
 7481.11 0.0250350048500000
 7481.67 0.0240527165900000
 7482.23 0.0231119704700000
 7482.79 0.0222129140700000
 7483.35 0.0213555435900000
 7483.91 0.0205356307500000
 7484.47 0.0197634116100000
 7485.03 0.0190271846200000
 7485.59 0.0183189093900000
 7486.15 0.0176394122900000
 7486.71 0.0169876818100000
 7487.27 0.0163623494000000
 7487.83 0.0157665839100000
 7488.39 0.0151979475000000
 7488.95 0.0146514378900000
 7489.51 0.0141278585000000
 7490.08 0.0136258521600000
 7490.64 0.0131454657400000
 7491.20 0.0126826440400000
 7491.76 0.0122404983400000
 7492.32 0.0118165247100000
 7492.88 0.0114080967400000
 7493.44 0.0110155970400000
 7494.00 0.0106395454500000
 7494.57 0.0102807431400000
 7495.13 0.0099361040800000
 7495.69 0.0096074140130000
 7496.25 0.0092917196610000
 7496.81 0.0089862980750000
 7497.38 0.0086919537120000
 7497.94 0.0084080662490000
 7498.50 0.0081346053320000
 7499.06 0.0078706243650000
 7499.63 0.0076168849140000
 7500.19 0.0073737338860000
 7500.75 0.0071398869190000
 7501.31 0.0069163424710000
 7501.88 0.0067026737970000
 7502.44 0.0064990589340000
 7503.00 0.0063045112700000
 7503.56 0.0061198349350000
 7504.13 0.0059442782820000
 7504.69 0.0057774315220000
 7505.25 0.0056182252990000
 7505.82 0.0054663616610000
 7506.38 0.0053214245240000
 7506.94 0.0051827292780000
 7507.51 0.0050495732570000
 7508.07 0.0049208211620000
 7508.63 0.0047966231040000
 7509.20 0.0046761006320000
 7509.76 0.0045586494750000
 7510.33 0.0044440153660000
 7510.89 0.0043320841420000
 7511.45 0.0042227798110000
 7512.02 0.0041157003970000
 7512.58 0.0040115136580000
 7513.15 0.0039098477530000
 7513.71 0.0038110638210000
 7514.28 0.0037154680040000
 7514.84 0.0036229433430000
 7515.41 0.0035338529120000
 7515.97 0.0034482043510000
 7516.54 0.0033665526850000
 7517.10 0.0032884963370000
 7517.67 0.0032140457330000
 7518.23 0.0031430717570000
 7518.80 0.0030753771640000
 7519.36 0.0030107128550000
 7519.93 0.0029488017310000
 7520.49 0.0028893638660000
 7521.06 0.0028317058150000
 7521.62 0.0027758685470000
 7522.19 0.0027212386770000
 7522.76 0.0026678001100000
 7523.32 0.0026151880040000
 7523.89 0.0025633076410000
 7524.45 0.0025118302080000
 7525.02 0.0024608465050000
 7525.59 0.0024104042960000
 7526.15 0.0023604583360000
 7526.72 0.0023111646010000
 7527.29 0.0022628799830000
 7527.85 0.0022156435610000
 7528.42 0.0021696350590000
 7528.99 0.0021250784710000
 7529.55 0.0020821565680000
 7530.12 0.0020408956100000
 7530.69 0.0020014481810000
 7531.25 0.0019639167780000
 7531.82 0.0019282175450000
 7532.39 0.0018943098620000
 7532.96 0.0018620210430000
 7533.52 0.0018313215630000
 7534.09 0.0018019020160000
 7534.66 0.0017736614020000
 7535.23 0.0017462942820000
 7535.80 0.0017197856250000
 7536.36 0.0016937466960000
 7536.93 0.0016680778360000
 7537.50 0.0016469637840000
 7538.07 0.0016124061290000
 7538.64 0.0014140469580000
 7539.20 0.0011967405610000
 7539.77 0.0010089763110000
 7540.34 0.0009754255134000
