# HIMAWARI9 relative spectral response function for band 16
# (see http://www.data.jma.go.jp/mscweb/en/himawari89/space_segment/spsg_ahi.html#band)
# converted from 
# http://www.data.jma.go.jp/mscweb/en/himawari89/space_segment/srf_201309/AHI-08_SpectralResponsivity.zip
# http://www.data.jma.go.jp/mscweb/en/himawari89/space_segment/srf_201310/AHI-09_SpectralResponsivity.zip
# 
# LAMBDA   RSR
# 
12745.35 0.0009945501742000
12746.97 0.0011948105760000
12748.60 0.0012275351730000
12750.22 0.0012471995510000
12751.85 0.0012670344010000
12753.48 0.0012873530440000
12755.10 0.0013079525530000
12756.73 0.0013294782370000
12758.36 0.0013528695480000
12759.98 0.0013772278520000
12761.61 0.0014039071590000
12763.24 0.0014331624160000
12764.87 0.0014639552400000
12766.50 0.0014982165690000
12768.13 0.0015345064970000
12769.76 0.0015736737250000
12771.39 0.0016160585060000
12773.02 0.0016605149700000
12774.66 0.0017084363090000
12776.29 0.0017589131640000
12777.92 0.0018118904370000
12779.55 0.0018680927400000
12781.19 0.0019265360800000
12782.82 0.0019874644550000
12784.45 0.0020508981650000
12786.09 0.0021162042730000
12787.72 0.0021835203710000
12789.36 0.0022526650720000
12791.00 0.0023227343820000
12792.63 0.0023944442530000
12794.27 0.0024670669070000
12795.91 0.0025399765070000
12797.54 0.0026144116710000
12799.18 0.0026883823490000
12800.82 0.0027632255310000
12802.46 0.0028386849660000
12804.10 0.0029137836490000
12805.74 0.0029903785300000
12807.38 0.0030666678770000
12809.02 0.0031439818760000
12810.66 0.0032229030290000
12812.30 0.0033031049870000
12813.94 0.0033854988920000
12815.58 0.0034710165790000
12817.23 0.0035592008790000
12818.87 0.0036510156100000
12820.51 0.0037477578020000
12822.16 0.0038482929260000
12823.80 0.0039554009910000
12825.45 0.0040676278370000
12827.09 0.0041854839370000
12828.74 0.0043110138340000
12830.38 0.0044417495700000
12832.03 0.0045804162130000
12833.68 0.0047260834080000
12835.32 0.0048779777520000
12836.97 0.0050386264630000
12838.62 0.0052054302160000
12840.27 0.0053798759700000
12841.92 0.0055617958330000
12843.57 0.0057513011030000
12845.22 0.0059483339340000
12846.87 0.0061525661230000
12848.52 0.0063651046580000
12850.17 0.0065857536180000
12851.82 0.0068147674670000
12853.47 0.0070534243600000
12855.12 0.0073009785760000
12856.78 0.0075587338220000
12858.43 0.0078269140450000
12860.08 0.0081057428340000
12861.74 0.0083986341480000
12863.39 0.0087015734380000
12865.05 0.0090180985430000
12866.70 0.0093489888570000
12868.36 0.0096930671420000
12870.01 0.0100538206700000
12871.67 0.0104324267000000
12873.33 0.0108338229500000
12874.98 0.0112536443400000
12876.64 0.0116916110400000
12878.30 0.0121506041100000
12879.96 0.0126304957300000
12881.62 0.0131320296400000
12883.28 0.0136558070800000
12884.94 0.0142036037100000
12886.60 0.0147781727800000
12888.26 0.0153780063400000
12889.92 0.0160079460600000
12891.58 0.0166684690200000
12893.24 0.0173610244600000
12894.91 0.0180893178000000
12896.57 0.0188524585900000
12898.23 0.0196565963500000
12899.90 0.0204998062200000
12901.56 0.0213684368200000
12903.23 0.0222760015800000
12904.89 0.0232251846400000
12906.56 0.0242234301300000
12908.22 0.0252716725800000
12909.89 0.0263702036600000
12911.56 0.0275266672900000
12913.22 0.0287369096300000
12914.89 0.0300103731500000
12916.56 0.0313510311000000
12918.23 0.0327805662000000
12919.90 0.0342885515500000
12921.57 0.0358710238600000
12923.24 0.0375370417600000
12924.91 0.0392927158800000
12926.58 0.0411343665500000
12928.25 0.0430345596700000
12929.92 0.0450113397100000
12931.59 0.0470869658100000
12933.26 0.0492637504800000
12934.94 0.0515432313500000
12936.61 0.0539519938200000
12938.28 0.0564809890200000
12939.96 0.0591353574500000
12941.63 0.0619175049400000
12943.31 0.0648459345200000
12944.98 0.0679326796500000
12946.66 0.0711755411800000
12948.34 0.0745694823600000
12950.01 0.0781355342000000
12951.69 0.0818755726700000
12953.37 0.0857944773400000
12955.05 0.0899059387500000
12956.72 0.0942121331100000
12958.40 0.0987239020700000
12960.08 0.1034360213000000
12961.76 0.1083612228000000
12963.44 0.1135197285000000
12965.12 0.1189010898000000
12966.80 0.1245134208000000
12968.49 0.1303729087000000
12970.17 0.1364662556000000
12971.85 0.1428387852000000
12973.53 0.1494803632000000
12975.22 0.1563718793000000
12976.90 0.1635260176000000
12978.59 0.1709502766000000
12980.27 0.1786001223000000
12981.96 0.1865078359000000
12983.64 0.1946483319000000
12985.33 0.2030283114000000
12987.01 0.2116432264000000
12988.70 0.2205197308000000
12990.39 0.2296183678000000
12992.07 0.2388988142000000
12993.76 0.2484465194000000
12995.45 0.2582336436000000
12997.14 0.2682052608000000
12998.83 0.2783878481000000
13000.52 0.2888518250000000
13002.21 0.2995226587000000
13003.90 0.3103325658000000
13005.59 0.3214025325000000
13007.28 0.3327413380000000
13008.98 0.3441330587000000
13010.67 0.3558119989000000
13012.36 0.3677869820000000
13014.06 0.3798626672000000
13015.75 0.3920941882000000
13017.44 0.4046347681000000
13019.14 0.4173136496000000
13020.83 0.4300624089000000
13022.53 0.4430451210000000
13024.23 0.4561952607000000
13025.92 0.4694118249000000
13027.62 0.4827467306000000
13029.32 0.4962231851000000
13031.01 0.5097607268000000
13032.71 0.5232669505000000
13034.41 0.5367953085000000
13036.11 0.5503926239000000
13037.81 0.5640300130000000
13039.51 0.5775490568000000
13041.21 0.5909982642000000
13042.91 0.6045398880000000
13044.61 0.6180543979000001
13046.31 0.6312715468000000
13048.02 0.6444168255000000
13049.72 0.6577277304000000
13051.42 0.6707858701000000
13053.13 0.6834924147000000
13054.83 0.6961502307000000
13056.53 0.7089285601000000
13058.24 0.7213712412000000
13059.95 0.7334144615000000
13061.65 0.7455068964000000
13063.36 0.7575836164000000
13065.06 0.7691673641000000
13066.77 0.7805061835000000
13068.48 0.7919223801000000
13070.19 0.8031275489000000
13071.90 0.8138484741000001
13073.60 0.8244944636000000
13075.31 0.8351981623000000
13077.02 0.8453778403000000
13078.73 0.8551884933000000
13080.44 0.8650218830000000
13082.16 0.8746604603000000
13083.87 0.8837651989000000
13085.58 0.8927258671000000
13087.29 0.9016166101000000
13089.01 0.9099678788000000
13090.72 0.9178935219000000
13092.43 0.9257226618000000
13094.15 0.9331487270000000
13095.86 0.9400360174000000
13097.58 0.9466808890000000
13099.29 0.9529771679000000
13101.01 0.9587294726000000
13102.73 0.9641764064000000
13104.44 0.9691280088000001
13106.16 0.9735612715000000
13107.88 0.9778480066000000
13109.60 0.9816344712000000
13111.32 0.9848434968000001
13113.03 0.9878827063000000
13114.75 0.9903363463000000
13116.47 0.9924739871000000
13118.19 0.9944139263000000
13119.92 0.9958265434000000
13121.64 0.9970603465000000
13123.36 0.9980587507000001
13125.08 0.9990989733000000
13126.80 0.9997528851000000
13128.53 0.9999910757000000
13130.25 0.9998706253000000
13131.98 0.9993952230000001
13133.70 0.9985996552000000
13135.43 0.9975804592000000
13137.15 0.9963652133000001
13138.88 0.9950506545000000
13140.60 0.9936684592000000
13142.33 0.9922980846000000
13144.06 0.9909668806000000
13145.79 0.9897374464000001
13147.52 0.9886396008000000
13149.24 0.9876689607000000
13150.97 0.9868671230000000
13152.70 0.9861770033000000
13154.43 0.9855920277000000
13156.16 0.9850638723000000
13157.89 0.9845630171999999
13159.63 0.9840481223000000
13161.36 0.9834884236000000
13163.09 0.9828503510000000
13164.82 0.9820874022000000
13166.56 0.9812160423000000
13168.29 0.9802353760000000
13170.03 0.9791863052000001
13171.76 0.9781004504000000
13173.49 0.9770140121000001
13175.23 0.9759865735000000
13176.97 0.9750796762000000
13178.70 0.9743401368000000
13180.44 0.9738486511000000
13182.18 0.9736263596000000
13183.92 0.9736832207000000
13185.65 0.9740481151000000
13187.39 0.9747311555000000
13189.13 0.9758327718000001
13190.87 0.9772729970000000
13192.61 0.9789798476000000
13194.35 0.9808686174000000
13196.09 0.9828244880000000
13197.84 0.9847739168000000
13199.58 0.9866072125999999
13201.32 0.9882539182000000
13203.06 0.9896537580000000
13204.81 0.9907766044000000
13206.55 0.9915931836000000
13208.29 0.9921045342000000
13210.04 0.9923351015000000
13211.78 0.9923444724000000
13213.53 0.9921818766000000
13215.28 0.9919272809000000
13217.02 0.9916403233000000
13218.77 0.9913983985000000
13220.52 0.9912636042000000
13222.27 0.9912423636000000
13224.01 0.9914139839000000
13225.76 0.9917535397000000
13227.51 0.9922803753000000
13229.26 0.9929667040000000
13231.01 0.9938000391000000
13232.76 0.9947049755000000
13234.52 0.9956053419000001
13236.27 0.9964494699999999
13238.02 0.9970695509000000
13239.77 0.9974450186000000
13241.53 0.9976368860000000
13243.28 0.9975412036000000
13245.03 0.9971652889000000
13246.79 0.9964844195000000
13248.54 0.9955021114000000
13250.30 0.9942858278000000
13252.05 0.9927864478000000
13253.81 0.9911788789000000
13255.57 0.9894280607000000
13257.32 0.9876561985000000
13259.08 0.9858852258000000
13260.84 0.9841842639000000
13262.60 0.9826150180000000
13264.36 0.9811860822000000
13266.12 0.9799385959000000
13267.88 0.9788705393000000
13269.64 0.9779744431000000
13271.40 0.9772219469000000
13273.16 0.9765999795000000
13274.92 0.9760337581000000
13276.69 0.9755295869000000
13278.45 0.9749577232000000
13280.21 0.9743084993000000
13281.98 0.9735123077000000
13283.74 0.9725490170000000
13285.51 0.9714089945000000
13287.27 0.9700510527000000
13289.04 0.9685278401000000
13290.80 0.9667909251000000
13292.57 0.9649239576999999
13294.34 0.9629019528000000
13296.10 0.9608232167000000
13297.87 0.9587290478000000
13299.64 0.9566772659000000
13301.41 0.9547485216000000
13303.18 0.9529674893000000
13304.95 0.9513555032000000
13306.72 0.9500064425000000
13308.49 0.9488832111000000
13310.26 0.9480792871000000
13312.03 0.9475107200000000
13313.81 0.9471623442000000
13315.58 0.9470030374000000
13317.35 0.9469711583000000
13319.13 0.9470665000000000
13320.90 0.9472254635000000
13322.68 0.9474008872000000
13324.45 0.9474994158000000
13326.23 0.9474790227000000
13328.00 0.9473518980000000
13329.78 0.9470446950000000
13331.56 0.9466250638000000
13333.33 0.9460536840000000
13335.11 0.9453745374000000
13336.89 0.9446191951000000
13338.67 0.9438005001000001
13340.45 0.9429992132000000
13342.23 0.9422021356000000
13344.01 0.9414935372000000
13345.79 0.9408735131000000
13347.57 0.9403813468000000
13349.35 0.9400297928000000
13351.13 0.9398056723000000
13352.92 0.9397466426000000
13354.70 0.9397895903000000
13356.48 0.9399547371000000
13358.27 0.9401806045000000
13360.05 0.9404593160000000
13361.84 0.9406947040000000
13363.62 0.9409054125000000
13365.41 0.9410670562000000
13367.20 0.9411468438000000
13368.98 0.9411671856000000
13370.77 0.9410729751000000
13372.56 0.9408980349000000
13374.35 0.9406037561000000
13376.14 0.9402389205000000
13377.93 0.9398061248000000
13379.72 0.9393383717000000
13381.51 0.9388378362000001
13383.30 0.9383121601000000
13385.09 0.9377965906000000
13386.88 0.9372974372000000
13388.67 0.9368241685000001
13390.47 0.9363655060000000
13392.26 0.9359670808000000
13394.05 0.9356200923000000
13395.85 0.9353559927000000
13397.64 0.9351543995000000
13399.44 0.9350768141000000
13401.23 0.9351137563000000
13403.03 0.9352650291000000
13404.83 0.9354382265000000
13406.62 0.9356721718000000
13408.42 0.9359652287000000
13410.22 0.9363048752000001
13412.02 0.9367189525000000
13413.82 0.9371608531000000
13415.62 0.9376227491000000
13417.42 0.9380554440000000
13419.22 0.9384329809000000
13421.02 0.9387970246000000
13422.82 0.9390507486000000
13424.62 0.9392595158000000
13426.42 0.9393354524000000
13428.23 0.9393319840000000
13430.03 0.9392235874000000
13431.83 0.9390239357000000
13433.64 0.9387694818000000
13435.44 0.9384520404000000
13437.25 0.9381025668000000
13439.05 0.9377312318000000
13440.86 0.9373699957000000
13442.67 0.9370665278000000
13444.47 0.9368082366000000
13446.28 0.9366308987999999
13448.09 0.9365324670000000
13449.90 0.9365114889000000
13451.71 0.9365752866000000
13453.52 0.9366900665000000
13455.33 0.9368590881000000
13457.14 0.9370323577000000
13458.95 0.9371913945000000
13460.76 0.9373195637000000
13462.57 0.9373632574000000
13464.39 0.9373176694000001
13466.20 0.9371361279000000
13468.01 0.9368139242000000
13469.83 0.9363235791000000
13471.64 0.9356715189000000
13473.46 0.9348642303000000
13475.27 0.9339145288000000
13477.09 0.9328296539000001
13478.91 0.9316523913000000
13480.72 0.9304254891000000
13482.54 0.9291901628000000
13484.36 0.9279375144999999
13486.18 0.9266965403000000
13488.00 0.9254939336000000
13489.82 0.9243341897000000
13491.64 0.9232531993000000
13493.46 0.9222693259000000
13495.28 0.9213986788000000
13497.10 0.9205976545000000
13498.92 0.9198120115000000
13500.74 0.9192198152000000
13502.57 0.9176353665000000
13504.39 0.9154889807000000
13506.21 0.9131967094000000
13508.04 0.9106907607000000
13509.86 0.9078139355000000
13511.69 0.9047326120000000
13513.51 0.9015369483000000
13515.34 0.8979504057000000
13517.17 0.8940196175000000
13518.99 0.8898373539000000
13520.82 0.8854411230000000
13522.65 0.8807917449000000
13524.48 0.8757459154000000
13526.31 0.8704453575000000
13528.14 0.8649017140000000
13529.97 0.8591463886000000
13531.80 0.8529476616000000
13533.63 0.8465186806000000
13535.46 0.8399028871999999
13537.30 0.8329740201000000
13539.13 0.8256973205000000
13540.96 0.8181877610000000
13542.80 0.8105206441000000
13544.63 0.8025959947000000
13546.46 0.7942886416000000
13548.30 0.7857644144000000
13550.14 0.7770880381000000
13551.97 0.7682840447000000
13553.81 0.7590792808000000
13555.65 0.7496244803000000
13557.48 0.7400758866000000
13559.32 0.7303784673000000
13561.16 0.7204712340000000
13563.00 0.7103693542000000
13564.84 0.7001132680000000
13566.68 0.6897144083000000
13568.52 0.6791582312000000
13570.36 0.6684404054999999
13572.20 0.6575820349000000
13574.05 0.6466638227000000
13575.89 0.6355112882000000
13577.73 0.6242827289000000
13579.58 0.6129196000000000
13581.42 0.6014868641000000
13583.27 0.5899255796000000
13585.11 0.5782369495000000
13586.96 0.5664826133000000
13588.80 0.5546279420000000
13590.65 0.5427369784000000
13592.50 0.5307701763000000
13594.34 0.5186947381000000
13596.19 0.5065659148000000
13598.04 0.4944777202000000
13599.89 0.4822677259000000
13601.74 0.4699183670000000
13603.59 0.4576314451000000
13605.44 0.4453388829000000
13607.29 0.4329004953000000
13609.15 0.4204841313000000
13611.00 0.4082006086000000
13612.85 0.3958163333000000
13614.70 0.3834081862000000
13616.56 0.3712613338000000
13618.41 0.3591074070000000
13620.27 0.3469662314000000
13622.12 0.3350719364000000
13623.98 0.3233468718000000
13625.83 0.3116825651000000
13627.69 0.3002881740000000
13629.55 0.2891458222000000
13631.41 0.2781322657000000
13633.27 0.2673962162000000
13635.12 0.2569587303000000
13636.98 0.2467180746000000
13638.84 0.2367708810000000
13640.70 0.2271103024000000
13642.56 0.2176830542000000
13644.43 0.2085311919000000
13646.29 0.1996701795000000
13648.15 0.1910719257000000
13650.01 0.1827358326000000
13651.88 0.1746770846000000
13653.74 0.1668617378000000
13655.61 0.1593041106000000
13657.47 0.1520288436000000
13659.34 0.1450069012000000
13661.20 0.1382407376000000
13663.07 0.1317392310000000
13664.94 0.1254803475000000
13666.80 0.1194809821000000
13668.67 0.1137312471000000
13670.54 0.1082286050000000
13672.41 0.1029633099000000
13674.28 0.0979361229100000
13676.15 0.0931515042000000
13678.02 0.0885924551800000
13679.89 0.0842680785200000
13681.76 0.0801515491700000
13683.63 0.0762331608800000
13685.51 0.0725140896200000
13687.38 0.0689733741900000
13689.25 0.0656137743600000
13691.13 0.0624184677300000
13693.00 0.0593778398600000
13694.88 0.0564880062000000
13696.75 0.0537358923000000
13698.63 0.0511219236600000
13700.51 0.0486322114700000
13702.38 0.0462572687300000
13704.26 0.0440115310700000
13706.14 0.0418812703900000
13708.02 0.0398620739500000
13709.90 0.0379583217300000
13711.78 0.0361480992900000
13713.66 0.0344372410700000
13715.54 0.0328241686100000
13717.42 0.0313318390900000
13719.30 0.0299200970300000
13721.19 0.0285731815700000
13723.07 0.0272877460600000
13724.95 0.0260635014400000
13726.84 0.0248952356400000
13728.72 0.0237890925700000
13730.61 0.0227395050200000
13732.49 0.0217331438100000
13734.38 0.0207707343400000
13736.26 0.0198497050900000
13738.15 0.0189688388500000
13740.04 0.0181257628200000
13741.93 0.0173184498100000
13743.82 0.0165453767400000
13745.70 0.0158074795500000
13747.59 0.0151204851300000
13749.48 0.0144714422300000
13751.38 0.0138489318800000
13753.27 0.0132551781300000
13755.16 0.0126881623800000
13757.05 0.0121459104400000
13758.94 0.0116326556000000
13760.84 0.0111419146400000
13762.73 0.0106753159800000
13764.62 0.0102316530900000
13766.52 0.0098073469510000
13768.42 0.0094068510680000
13770.31 0.0090256737080000
13772.21 0.0086621718030000
13774.10 0.0083186434530000
13776.00 0.0079890813200000
13777.90 0.0076766620370000
13779.80 0.0073789666420000
13781.70 0.0070901089550000
13783.60 0.0068153088420000
13785.50 0.0065519566750000
13787.40 0.0063002914390000
13789.30 0.0060596136960000
13791.20 0.0058284464230000
13793.10 0.0056058888430000
13795.01 0.0053917815590000
13796.91 0.0051845359790000
13798.81 0.0049844210530000
13800.72 0.0047913067470000
13802.62 0.0046030597380000
13804.53 0.0044221436900000
13806.43 0.0042460937140000
13808.34 0.0040755099700000
13810.25 0.0039111809820000
13812.15 0.0037515108190000
13814.06 0.0035981756800000
13815.97 0.0034509758210000
13817.88 0.0033097012600000
13819.79 0.0031752015450000
13821.70 0.0030477193430000
13823.61 0.0029259276960000
13825.52 0.0028122883010000
13827.43 0.0027049515900000
13829.35 0.0026037079490000
13831.26 0.0025106883110000
13833.17 0.0024218795960000
13835.09 0.0023398875930000
13837.00 0.0022628746190000
13838.92 0.0021897943570000
13840.83 0.0021215804620000
13842.75 0.0020562526160000
13844.66 0.0019937885970000
13846.58 0.0019336096440000
13848.50 0.0018748841870000
13850.42 0.0018170958120000
13852.33 0.0017606657480000
13854.25 0.0017039960290000
13856.17 0.0016483804460000
13858.09 0.0015934620210000
13860.01 0.0015385227730000
13861.94 0.0014854694910000
13863.86 0.0014333036470000
13865.78 0.0013827073130000
13867.70 0.0013343428840000
13869.63 0.0012882729600000
13871.55 0.0012444154990000
13873.47 0.0012041333670000
13875.40 0.0011660822100000
13877.32 0.0011311493820000
13879.25 0.0010996112970000
13881.18 0.0010697178470000
13883.10 0.0010432350110000
13885.03 0.0010183266560000
13886.96 0.0009947904813000
