# Extracted from file Polder2Spectrum.txt, available from http://smsc.cnes.fr/POLDER/GP_instrument.htm
# 	865P	
# 	k=9	
804.00	0.0011	
804.50	0.0010	
805.00	0.0008	
805.50	0.0006	
806.00	0.0004	
806.50	0.0007	
807.00	0.0011	
807.50	0.0015	
808.00	0.0020	
808.50	0.0015	
809.00	0.0009	
809.50	0.0017	
810.00	0.0025	
810.50	0.0021	
811.00	0.0018
811.50	0.0019
812.00	0.0020
812.50	0.0023
813.00	0.0026
813.50	0.0018
814.00	0.0010
814.50	0.0012
815.00	0.0014
815.50	0.0012
816.00	0.0011
816.50	0.0010
817.00	0.0010
817.50	0.0017
818.00	0.0023
818.50	0.0022
819.00	0.0020
819.50	0.0025
820.00	0.0029
820.50	0.0030
821.00	0.0032
821.50	0.0038
822.00	0.0045
822.50	0.0059
823.00	0.0073
823.50	0.0085
824.00	0.0097
824.50	0.0110
825.00	0.0123
825.50	0.0136
826.00	0.0149
826.50	0.0173
827.00	0.0196
827.50	0.0227
828.00	0.0258
828.50	0.0296
829.00	0.0335
829.50	0.0368
830.00	0.0402
830.50	0.0464
831.00	0.0527
831.50	0.0606
832.00	0.0686
832.50	0.0774
833.00	0.0862
833.50	0.0980
834.00	0.1098
834.50	0.1245
835.00	0.1392
835.50	0.1593
836.00	0.1793
836.50	0.2038
837.00	0.2284
837.50	0.2559
838.00	0.2833
838.50	0.3171
839.00	0.3508
839.50	0.3912
840.00	0.4316
840.50	0.4744
841.00	0.5173
841.50	0.5618
842.00	0.6062
842.50	0.6502
843.00	0.6942
843.50	0.7329
844.00	0.7716
844.50	0.8046
845.00	0.8376
845.50	0.8706
846.00	0.9035
846.50	0.9244
847.00	0.9454
847.50	0.9604
848.00	0.9755
848.50	0.9822
849.00	0.9888
849.50	0.9907
850.00	0.9926
850.50	0.9956
851.00	0.9985
851.50	0.9952
852.00	0.9918
852.50	0.9879
853.00	0.9839
853.50	0.9807
854.00	0.9775
854.50	0.9729
855.00	0.9683
855.50	0.9613
856.00	0.9544
856.50	0.9513
857.00	0.9483
857.50	0.9436
858.00	0.9389
858.50	0.9356
859.00	0.9324
859.50	0.9301
860.00	0.9277
860.50	0.9254
861.00	0.9231
861.50	0.9206
862.00	0.9182
862.50	0.9160
863.00	0.9138
863.50	0.9113
864.00	0.9089
864.50	0.9085
865.00	0.9080
865.50	0.9056
866.00	0.9032
866.50	0.8984
867.00	0.8936
867.50	0.8991
868.00	0.9045
868.50	0.9041
869.00	0.9037
869.50	0.9011
870.00	0.8985
870.50	0.8950
871.00	0.8915
871.50	0.8857
872.00	0.8799
872.50	0.8706
873.00	0.8614
873.50	0.8466
874.00	0.8317
874.50	0.8109
875.00	0.7901
875.50	0.7666
876.00	0.7432
876.50	0.7109
877.00	0.6786
877.50	0.6497
878.00	0.6209
878.50	0.5879
879.00	0.5549
879.50	0.5184
880.00	0.4818
880.50	0.4457
881.00	0.4095
881.50	0.3803
882.00	0.3511
882.50	0.3224
883.00	0.2937
883.50	0.2692
884.00	0.2447
884.50	0.2240
885.00	0.2033
885.50	0.1857
886.00	0.1680
886.50	0.1525
887.00	0.1369
887.50	0.1242
888.00	0.1115
888.50	0.1015
889.00	0.0916
889.50	0.0828
890.00	0.0741
890.50	0.0668
891.00	0.0595
891.50	0.0538
892.00	0.0481
892.50	0.0433
893.00	0.0386
893.50	0.0352
894.00	0.0317
894.50	0.0291
895.00	0.0265
895.50	0.0236
896.00	0.0207
896.50	0.0189
897.00	0.0171
897.50	0.0156
898.00	0.0141
898.50	0.0128
899.00	0.0116
899.50	0.0099
900.00	0.0082
900.50	0.0074
901.00	0.0066
901.50	0.0066
902.00	0.0067
902.50	0.0057
903.00	0.0047
903.50	0.0039
904.00	0.0031
904.50	0.0034
905.00	0.0038
905.50	0.0038
906.00	0.0038
906.50	0.0033
907.00	0.0027
907.50	0.0021
908.00	0.0015
908.50	0.0015
909.00	0.0015
909.50	0.0013
910.00	0.0011
910.50	0.0008
911.00	0.0005
911.50	0.0008
912.00	0.0011
912.50	0.0013
913.00	0.0014
913.50	0.0009
914.00	0.0003
914.50	0.0001
915.00	0.0000
915.50	0.0000
916.00	0.0001
916.50	0.0004
917.00	0.0007
917.50	0.0006
918.00	0.0004
918.50	0.0003
919.00	0.0003
919.50	0.0004
920.00	0.0005
920.50	0.0005
921.00	0.0004
921.50	0.0003
922.00	0.0002
