# latest normalized spectral responses (as of March 2012)
200.000 0.90982
202.282 0.91303
204.589 0.91592
206.923 0.91893
209.283 0.92141
211.671 0.92354
214.085 0.92485
216.528 0.92607
218.998 0.92743
221.496 0.92824
224.023 0.92866
226.578 0.92883
229.163 0.92906
231.777 0.92810
234.421 0.92655
237.095 0.92487
239.800 0.92330
242.536 0.92174
245.302 0.92017
248.101 0.91858
250.931 0.91698
253.793 0.91539
256.688 0.91375
259.617 0.91199
262.578 0.91019
265.574 0.90836
268.603 0.90652
271.667 0.90473
274.766 0.90297
277.901 0.90120
281.071 0.89950
284.277 0.89799
287.520 0.89647
290.800 0.89493
294.117 0.89335
297.473 0.89171
300.866 0.89016
304.298 0.88891
307.769 0.88769
311.280 0.88649
314.831 0.88576
318.423 0.88486
322.055 0.88388
325.729 0.88321
329.445 0.88253
333.203 0.88180
337.004 0.88100
340.848 0.88028
344.737 0.87986
348.669 0.87945
352.647 0.87940
356.670 0.87957
360.738 0.87980
364.853 0.88029
369.016 0.88056
373.225 0.88050
377.483 0.88005
381.789 0.87956
386.144 0.87994
390.549 0.88023
395.004 0.88057
399.510 0.88095
404.068 0.88143
408.677 0.88191
413.339 0.88254
418.054 0.88328
422.823 0.88404
427.647 0.88487
432.525 0.88553
437.459 0.88608
442.450 0.88669
447.497 0.88739
452.602 0.88803
457.765 0.88867
462.987 0.88932
468.268 0.88998
473.610 0.89056
479.013 0.89131
484.477 0.89200
490.004 0.89267
495.594 0.89345
501.247 0.89428
506.965 0.89495
512.749 0.89557
518.598 0.89620
524.514 0.89677
530.497 0.89729
536.549 0.89758
542.669 0.89792
548.860 0.89838
555.121 0.89868
561.454 0.89878
567.859 0.89861
574.336 0.89848
580.888 0.89836
587.515 0.89840
594.217 0.89851
600.995 0.89861
607.851 0.89867
614.785 0.89870
621.799 0.89858
628.892 0.89802
636.066 0.89743
643.322 0.89705
650.661 0.89679
658.083 0.89659
665.590 0.89658
673.183 0.89618
680.862 0.89541
688.629 0.89474
696.485 0.89348
704.430 0.89189
712.466 0.89017
720.593 0.88787
728.814 0.88565
737.128 0.88202
745.537 0.87826
754.041 0.87464
762.643 0.87125
771.343 0.86791
780.142 0.86442
789.042 0.86086
798.043 0.85713
807.146 0.85621
816.354 0.85628
825.667 0.85688
835.085 0.85835
844.612 0.86050
854.247 0.86309
863.992 0.86653
873.848 0.87224
883.816 0.87866
893.898 0.88603
904.095 0.89453
914.409 0.90282
924.840 0.91137
935.390 0.92163
946.061 0.93068
956.853 0.93818
967.768 0.94294
978.808 0.94619
989.974 0.95057
1001.267  0.95406
1012.689  0.95739
1024.242  0.95985
1035.926  0.96278
1047.743  0.96545
1059.695  0.96733
1071.784  0.96996
1084.010  0.97105
1096.376  0.97268
1108.883  0.97478
1121.533  0.97544
1134.327  0.97716
1147.267  0.97758
1160.354  0.97933
1173.591  0.98020
1186.979  0.98135
1200.520  0.98211
1214.215  0.98325
1228.066  0.98437
1242.075  0.98446
1256.244  0.98549
1270.575  0.98642
1285.069  0.98767
1299.728  0.98786
1314.555  0.98866
1329.551  0.98970
1344.718  0.99003
1360.058  0.98927
1375.573  0.99099
1391.265  0.99132
1407.136  0.99231
1423.188  0.99195
1439.423  0.99217
1455.843  0.99327
1472.451  0.99333
1489.248  0.99381
1506.237  0.99381
1523.419  0.99500
1540.798  0.99496
1558.374  0.99502
1576.152  0.99469
1594.132  0.99514
1612.317  0.99490
1630.709  0.99537
1649.312  0.99635
1668.126  0.99575
1687.156  0.99562
1706.402  0.99669
1725.868  0.99657
1745.556  0.99700
1765.468  0.99682
1785.608  0.99584
1805.978  0.99647
1826.579  0.99640
1847.416  0.99648
1868.491  0.99762
1889.806  0.99745
1911.364  0.99750
1933.168  0.99674
1955.220  0.99814
1977.525  0.99693
2000.083  0.99788
2022.900  0.99853
2045.976  0.99714
2069.316  0.99830
2092.921  0.99840
2116.797  0.99781
2140.944  0.99800
2165.367  0.99839
2190.069  0.99822
2215.052  0.99820
2240.320  0.99791
2265.877  0.99851
2291.725  0.99867
2317.868  0.99886
2344.309  0.99908
2371.052  0.99831
2398.100  0.99952
2425.456  0.99873
2453.125  0.99834
2481.109  0.99857
2509.413  0.99877
2538.039  0.99869
2566.992  0.99860
2596.275  0.99851
2625.892  0.99843
2655.847  0.99827
2686.144  0.99808
2716.786  0.99790
2747.778  0.99771
2779.124  0.99753
2810.827  0.99735
2842.891  0.99717
2875.322  0.99699
2908.122  0.99682
2941.297  0.99664
2974.850  0.99647
3008.786  0.99630
3043.108  0.99614
3077.823  0.99597
3112.933  0.99581
3148.444  0.99565
3184.360  0.99552
3220.686  0.99539
3257.426  0.99527
3294.586  0.99515
3332.169  0.99503
3370.181  0.99490
3408.626  0.99475
3447.511  0.99460
3486.838  0.99446
3526.615  0.99432
3566.845  0.99418
3607.534  0.99405
3648.687  0.99391
3690.310  0.99378
3732.407  0.99365
3774.985  0.99353
3818.048  0.99340
3861.603  0.99328
3905.654  0.99316
3950.208  0.99305
3995.270  0.99293
4040.847  0.99296
4086.943  0.99300
4133.565  0.99305
4180.719  0.99310
4228.411  0.99316
4276.647  0.99322
4325.433  0.99328
4374.775  0.99334
4424.681  0.99341
4475.156  0.99348
4526.206  0.99356
4577.839  0.99363
4630.061  0.99371
4682.879  0.99379
4736.299  0.99387
4790.329  0.99396
4844.975  0.99405
4900.244  0.99414
4956.144  0.99423
5012.682  0.99433
5069.864  0.99442
5127.699  0.99452
5186.194  0.99462
5245.355  0.99473
5305.192  0.99483
5365.712  0.99494
5426.921  0.99504
5488.829  0.99515
5551.443  0.99531
5614.772  0.99551
5678.823  0.99572
5743.604  0.99593
5809.125  0.99608
5875.393  0.99620
5942.417  0.99632
6010.205  0.99642
6078.767  0.99637
6148.111  0.99639
6218.246  0.99642
6289.181  0.99643
6360.925  0.99644
6433.488  0.99646
6506.878  0.99649
6581.106  0.99652
6656.180  0.99655
6732.111  0.99659
6808.908  0.99663
6886.581  0.99668
6965.140  0.99673
7044.596  0.99679
7124.957  0.99685
7206.236  0.99691
7288.441  0.99698
7371.585  0.99705
7455.676  0.99712
7540.728  0.99720
7626.749  0.99727
7713.752  0.99736
7801.747  0.99744
7890.746  0.99753
7980.760  0.99762
8071.801  0.99766
8163.880  0.99769
8257.010  0.99773
8351.203  0.99772
8446.470  0.99763
8542.823  0.99760
8640.276  0.99757
8738.841  0.99775
8838.530  0.99770
8939.356  0.99785
9041.332  0.99809
9144.471  0.99823
9248.788  0.99830
9354.294  0.99837
9461.003  0.99845
9568.931  0.99853
9678.089  0.99861
9788.492  0.99870
9900.155  0.99879
10013.092 0.99888
10127.317 0.99896
10242.845 0.99900
10359.691 0.99901
10477.869 0.99905
10597.396 0.99904
10718.287 0.99905
10840.556 0.99894
10964.221 0.99893
11089.296 0.99893
11215.798 0.99880
11343.743 0.99880
11473.147 0.99890
11604.028 0.99900
11736.402 0.99919
11870.285 0.99925
12005.696 0.99941
12142.652 0.99947
12281.170 0.99935
12421.268 0.99947
12562.965 0.99947
12706.278 0.99956
12851.225 0.99979
12997.827 0.99991
13146.100 1.00000
13296.065 0.99991
13447.741 0.99962
13601.147 0.99978
13756.303 0.99988
13913.229 0.99978
14071.945 0.99990
14232.471 0.99978
14394.829 0.99963
14559.039 0.99906
14725.122 0.99929
14893.100 0.99898
15062.994 0.99863
15234.826 0.99774
15408.619 0.99656
15584.393 0.99550
15762.173 0.99473
15941.981 0.99427
16123.841 0.99416
16307.774 0.99429
16493.806 0.99403
16681.960 0.99435
16872.261 0.99478
17064.732 0.99520
17259.399 0.99540
17456.287 0.99526
17655.421 0.99533
17856.826 0.99549
18060.529 0.99523
18266.556 0.99536
18474.933 0.99554
18685.687 0.99530
18898.845 0.99544
19114.435 0.99534
19332.484 0.99525
19553.020 0.99528
19776.073 0.99530
20001.670 0.99557
20229.840 0.99677
20460.613 0.99693
20694.019 0.99610
20930.087 0.99609
21168.849 0.99695
21410.334 0.99732
21654.573 0.99743
21901.599 0.99727
22151.443 0.99732
22404.137 0.99791
22659.714 0.99847
22918.206 0.99772
23179.647 0.99702
23444.070 0.99724
23711.510 0.99765
23982.001 0.99740
24255.577 0.99627
24532.274 0.99549
24812.128 0.99484
25095.173 0.99323
25381.448 0.99297
25670.989 0.99227
25963.832 0.99149
26260.016 0.99142
26559.579 0.99035
26862.559 0.98923
27168.996 0.98880
27478.928 0.98780
27792.396 0.98585
28109.439 0.98476
28430.099 0.98432
28754.418 0.98360
29082.435 0.98312
29414.195 0.98174
29749.740 0.97980
30089.112 0.97850
30432.355 0.97780
30779.514 0.97716
31130.633 0.97586
31485.758 0.97453
31844.934 0.97449
32208.207 0.97344
32575.624 0.97258
32947.233 0.97116
33323.081 0.96962
33703.216 0.96906
34087.687 0.96836
34476.545 0.96740
34869.838 0.96655
35267.618 0.96566
35669.936 0.96476
36076.843 0.96419
36488.392 0.96336
36904.636 0.96243
37325.628 0.96177
37751.422 0.96126
38182.074 0.96042
38617.639 0.96050
39058.172 0.95972
39503.730 0.95852
39954.372 0.95781
40410.154 0.95727
40871.135 0.95709
41337.375 0.95691
41808.934 0.95674
42285.872 0.95589
42768.251 0.95506
43256.133 0.95479
43749.580 0.95445
44248.656 0.95420
44753.426 0.95397
45263.953 0.95366
45780.305 0.95351
46302.547 0.95280
46830.746 0.95261
47364.971 0.95296
47905.290 0.95385
48451.772 0.95387
49004.489 0.95368
49563.511 0.95292
50128.910 0.95242
50700.759 0.95242
51279.131 0.95242
51864.101 0.95242
52455.744 0.95242
53054.136 0.95242
53659.355 0.95242
54271.477 0.95242
54890.583 0.95242
55516.751 0.95242
56150.062 0.95242
56790.597 0.95242
57438.439 0.95242
58093.672 0.95242
