# latest normalized spectral responses (as of March 2012)
200.000 0.87964
202.282 0.88445
204.589 0.88935
206.923 0.89336
209.283 0.89647
211.671 0.89921
214.085 0.90112
216.528 0.90293
218.998 0.90484
221.496 0.90619
224.023 0.90716
226.578 0.90785
229.163 0.90858
231.777 0.90812
234.421 0.90706
237.095 0.90586
239.800 0.90474
242.536 0.90361
245.302 0.90245
248.101 0.90129
250.931 0.90011
253.793 0.89894
256.688 0.89772
259.617 0.89635
262.578 0.89493
265.574 0.89347
268.603 0.89197
271.667 0.89052
274.766 0.88908
277.901 0.88761
281.071 0.88622
284.277 0.88500
287.520 0.88375
290.800 0.88248
294.117 0.88117
297.473 0.87978
300.866 0.87847
304.298 0.87746
307.769 0.87646
311.280 0.87549
314.831 0.87497
318.423 0.87428
322.055 0.87350
325.729 0.87302
329.445 0.87252
333.203 0.87198
337.004 0.87136
340.848 0.87081
344.737 0.87055
348.669 0.87030
352.647 0.87040
356.670 0.87072
360.738 0.87110
364.853 0.87173
369.016 0.87213
373.225 0.87221
377.483 0.87189
381.789 0.87152
386.144 0.87202
390.549 0.87243
395.004 0.87288
399.510 0.87338
404.068 0.87396
408.677 0.87454
413.339 0.87528
418.054 0.87611
422.823 0.87697
427.647 0.87788
432.525 0.87864
437.459 0.87928
442.450 0.87997
447.497 0.88076
452.602 0.88148
457.765 0.88220
462.987 0.88292
468.268 0.88366
473.610 0.88432
479.013 0.88514
484.477 0.88590
490.004 0.88664
495.594 0.88749
501.247 0.88838
506.965 0.88911
512.749 0.88980
518.598 0.89050
524.514 0.89113
530.497 0.89172
536.549 0.89207
542.669 0.89247
548.860 0.89299
555.121 0.89335
561.454 0.89351
567.859 0.89339
574.336 0.89332
580.888 0.89326
587.515 0.89335
594.217 0.89352
600.995 0.89366
607.851 0.89377
614.785 0.89386
621.799 0.89379
628.892 0.89329
636.066 0.89274
643.322 0.89241
650.661 0.89220
658.083 0.89205
665.590 0.89208
673.183 0.89174
680.862 0.89101
688.629 0.89039
696.485 0.88918
704.430 0.88764
712.466 0.88597
720.593 0.88372
728.814 0.88154
737.128 0.87798
745.537 0.87426
754.041 0.87070
762.643 0.86736
771.343 0.86406
780.142 0.86063
789.042 0.85711
798.043 0.85343
807.146 0.85255
816.354 0.85266
825.667 0.85328
835.085 0.85479
844.612 0.85695
854.247 0.85956
863.992 0.86302
873.848 0.86874
883.816 0.87517
893.898 0.88253
904.095 0.89103
914.409 0.89933
924.840 0.90787
935.390 0.91813
946.061 0.92718
956.853 0.93468
967.768 0.93946
978.808 0.94273
989.974 0.94713
1001.267  0.95065
1012.689  0.95400
1024.242  0.95648
1035.926  0.95944
1047.743  0.96213
1059.695  0.96403
1071.784  0.96669
1084.010  0.96780
1096.376  0.96947
1108.883  0.97159
1121.533  0.97229
1134.327  0.97404
1147.267  0.97449
1160.354  0.97628
1173.591  0.97719
1186.979  0.97837
1200.520  0.97916
1214.215  0.98033
1228.066  0.98148
1242.075  0.98162
1256.244  0.98269
1270.575  0.98366
1285.069  0.98496
1299.728  0.98518
1314.555  0.98603
1329.551  0.98711
1344.718  0.98748
1360.058  0.98678
1375.573  0.98853
1391.265  0.98890
1407.136  0.98994
1423.188  0.98963
1439.423  0.98990
1455.843  0.99104
1472.451  0.99115
1489.248  0.99168
1506.237  0.99172
1523.419  0.99296
1540.798  0.99297
1558.374  0.99309
1576.152  0.99281
1594.132  0.99331
1612.317  0.99313
1630.709  0.99365
1649.312  0.99469
1668.126  0.99416
1687.156  0.99410
1706.402  0.99522
1725.868  0.99517
1745.556  0.99567
1765.468  0.99555
1785.608  0.99463
1805.978  0.99533
1826.579  0.99532
1847.416  0.99547
1868.491  0.99668
1889.806  0.99659
1911.364  0.99672
1933.168  0.99602
1955.220  0.99749
1977.525  0.99637
2000.083  0.99739
2022.900  0.99813
2045.976  0.99682
2069.316  0.99807
2092.921  0.99825
2116.797  0.99775
2140.944  0.99803
2165.367  0.99851
2190.069  0.99842
2215.052  0.99847
2240.320  0.99826
2265.877  0.99892
2291.725  0.99913
2317.868  0.99934
2344.309  0.99958
2371.052  0.99880
2398.100  1.00000
2425.456  0.99918
2453.125  0.99880
2481.109  0.99903
2509.413  0.99923
2538.039  0.99915
2566.992  0.99905
2596.275  0.99892
2625.892  0.99873
2655.847  0.99822
2686.144  0.99750
2716.786  0.99632
2747.778  0.99494
2779.124  0.99305
2810.827  0.99020
2842.891  0.98669
2875.322  0.98353
2908.122  0.98115
2941.297  0.97890
2974.850  0.97648
3008.786  0.97502
3043.108  0.97501
3077.823  0.97502
3112.933  0.97435
3148.444  0.97387
3184.360  0.97452
3220.686  0.97566
3257.426  0.97659
3294.586  0.97738
3332.169  0.97769
3370.181  0.97526
3408.626  0.97000
3447.511  0.96024
3486.838  0.94119
3526.615  0.91220
3566.845  0.88330
3607.534  0.85860
3648.687  0.82378
3690.310  0.77093
3732.407  0.72507
3774.985  0.70929
3818.048  0.71323
3861.603  0.71412
3905.654  0.70895
3950.208  0.69954
3995.270  0.67840
4040.847  0.63613
4086.943  0.57635
4133.565  0.51763
4180.719  0.47516
4228.411  0.43480
4276.647  0.35400
4325.433  0.24987
4374.775  0.18789
4424.681  0.16948
4475.156  0.19321
4526.206  0.23527
4577.839  0.24940
4630.061  0.21625
4682.879  0.15360
4736.299  0.07343
4790.329  0.01295
4844.975  0.00092
4900.244  0.00067
4956.144  0.00069
5012.682  0.00072
5069.864  0.00072
5127.699  0.00072
5186.194  0.00072
5245.355  0.00072
5305.192  0.00072
5365.712  0.00072
5426.921  0.00072
5488.829  0.00072
5551.443  0.00072
5614.772  0.00071
5678.823  0.00071
5743.604  0.00071
5809.125  0.00071
5875.393  0.00071
5942.417  0.00071
6010.205  0.00071
6078.767  0.00071
6148.111  0.00071
6218.246  0.00071
6289.181  0.00071
6360.925  0.00071
6433.488  0.00071
6506.878  0.00071
6581.106  0.00071
6656.180  0.00071
6732.111  0.00071
6808.908  0.00071
6886.581  0.00071
6965.140  0.00071
7044.596  0.00070
7124.957  0.00070
7206.236  0.00070
7288.441  0.00070
7371.585  0.00070
7455.676  0.00070
7540.728  0.00070
7626.749  0.00070
7713.752  0.00070
7801.747  0.00070
7890.746  0.00070
7980.760  0.00070
8071.801  0.00070
8163.880  0.00070
8257.010  0.00070
8351.203  0.00070
8446.470  0.00069
8542.823  0.00069
8640.276  0.00069
8738.841  0.00069
8838.530  0.00069
8939.356  0.00069
9041.332  0.00069
9144.471  0.00069
9248.788  0.00069
9354.294  0.00069
9461.003  0.00069
9568.931  0.00069
9678.089  0.00069
9788.492  0.00069
9900.155  0.00068
10013.092 0.00068
10127.317 0.00068
10242.845 0.00068
10359.691 0.00068
10477.869 0.00068
10597.396 0.00068
10718.287 0.00068
10840.556 0.00068
10964.221 0.00068
11089.296 0.00068
11215.798 0.00067
11343.743 0.00067
11473.147 0.00067
11604.028 0.00067
11736.402 0.00067
11870.285 0.00067
12005.696 0.00067
12142.652 0.00067
12281.170 0.00067
12421.268 0.00067
12562.965 0.00066
12706.278 0.00066
12851.225 0.00066
12997.827 0.00066
13146.100 0.00066
13296.065 0.00066
13447.741 0.00066
13601.147 0.00066
13756.303 0.00066
13913.229 0.00065
14071.945 0.00065
14232.471 0.00065
14394.829 0.00065
14559.039 0.00065
14725.122 0.00065
14893.100 0.00065
15062.994 0.00065
15234.826 0.00064
15408.619 0.00064
15584.393 0.00064
15762.173 0.00064
15941.981 0.00064
16123.841 0.00063
16307.774 0.00063
16493.806 0.00063
16681.960 0.00063
16872.261 0.00063
17064.732 0.00063
17259.399 0.00063
17456.287 0.00063
17655.421 0.00062
17856.826 0.00062
18060.529 0.00062
18266.556 0.00062
18474.933 0.00062
18685.687 0.00062
18898.845 0.00061
19114.435 0.00061
19332.484 0.00061
19553.020 0.00061
19776.073 0.00061
20001.670 0.00061
20229.840 0.00060
20460.613 0.00060
20694.019 0.00060
20930.087 0.00060
21168.849 0.00060
21410.334 0.00060
21654.573 0.00059
21901.599 0.00059
22151.443 0.00059
22404.137 0.00059
22659.714 0.00059
22918.206 0.00059
23179.647 0.00058
23444.070 0.00058
23711.510 0.00058
23982.001 0.00058
24255.577 0.00057
24532.274 0.00057
24812.128 0.00057
25095.173 0.00057
25381.448 0.00056
25670.989 0.00056
25963.832 0.00056
26260.016 0.00056
26559.579 0.00055
26862.559 0.00055
27168.996 0.00055
27478.928 0.00055
27792.396 0.00054
28109.439 0.00054
28430.099 0.00054
28754.418 0.00053
29082.435 0.00053
29414.195 0.00053
29749.740 0.00052
30089.112 0.00052
30432.355 0.00052
30779.514 0.00051
31130.633 0.00051
31485.758 0.00051
31844.934 0.00051
32208.207 0.00050
32575.624 0.00050
32947.233 0.00050
33323.081 0.00049
33703.216 0.00049
34087.687 0.00049
34476.545 0.00048
34869.838 0.00048
35267.618 0.00048
35669.936 0.00047
36076.843 0.00047
36488.392 0.00047
36904.636 0.00046
37325.628 0.00046
37751.422 0.00046
38182.074 0.00045
38617.639 0.00045
39058.172 0.00044
39503.730 0.00044
39954.372 0.00044
40410.154 0.00043
40871.135 0.00043
41337.375 0.00043
41808.934 0.00042
42285.872 0.00042
42768.251 0.00042
43256.133 0.00041
43749.580 0.00041
44248.656 0.00040
44753.426 0.00040
45263.953 0.00040
45780.305 0.00039
46302.547 0.00039
46830.746 0.00039
47364.971 0.00038
47905.290 0.00038
48451.772 0.00037
49004.489 0.00037
49563.511 0.00037
50128.910 0.00036
50700.759 0.00036
51279.131 0.00035
51864.101 0.00035
52455.744 0.00034
53054.136 0.00034
53659.355 0.00034
54271.477 0.00033
54890.583 0.00033
55516.751 0.00032
56150.062 0.00032
56790.597 0.00031
57438.439 0.00031
58093.672 0.00030
