# Provided by ESA in 10/2012
# Important Notes:
# The data contained here correspond to the OLCI Spectral Model CDR derived in 2011.
# The data have been calculated for the camera 4, pointing nadir.
877.73  0.0006
877.74  0.0007
877.75  0.0007
877.76  0.0007
877.77  0.0008
877.78  0.0008
877.79  0.0009
877.80  0.0009
877.81  0.0009
877.82  0.0010
877.83  0.0010
877.84  0.0011
877.85  0.0011
877.86  0.0012
877.87  0.0012
877.88  0.0013
877.89  0.0013
877.90  0.0014
877.91  0.0014
877.92  0.0015
877.93  0.0015
877.94  0.0016
877.95  0.0017
877.96  0.0018
877.97  0.0019
877.98  0.0020
877.99  0.0020
878.00  0.0021
878.01  0.0022
878.02  0.0023
878.03  0.0024
878.04  0.0025
878.05  0.0026
878.06  0.0027
878.07  0.0028
878.08  0.0030
878.09  0.0031
878.10  0.0032
878.11  0.0033
878.12  0.0034
878.13  0.0035
878.14  0.0037
878.15  0.0039
878.16  0.0041
878.17  0.0042
878.18  0.0044
878.19  0.0046
878.20  0.0047
878.21  0.0049
878.22  0.0051
878.23  0.0052
878.24  0.0055
878.25  0.0057
878.26  0.0060
878.27  0.0062
878.28  0.0064
878.29  0.0067
878.30  0.0069
878.31  0.0071
878.32  0.0074
878.33  0.0076
878.34  0.0080
878.35  0.0083
878.36  0.0086
878.37  0.0089
878.38  0.0093
878.39  0.0096
878.40  0.0099
878.41  0.0103
878.42  0.0106
878.43  0.0109
878.44  0.0114
878.45  0.0118
878.46  0.0123
878.47  0.0127
878.48  0.0132
878.49  0.0136
878.50  0.0141
878.51  0.0145
878.52  0.0150
878.53  0.0154
878.54  0.0160
878.55  0.0166
878.56  0.0172
878.57  0.0178
878.58  0.0184
878.59  0.0190
878.60  0.0196
878.61  0.0203
878.62  0.0209
878.63  0.0215
878.64  0.0222
878.65  0.0230
878.66  0.0238
878.67  0.0246
878.68  0.0254
878.69  0.0262
878.70  0.0270
878.71  0.0278
878.72  0.0286
878.73  0.0294
878.74  0.0304
878.75  0.0314
878.76  0.0324
878.77  0.0335
878.78  0.0345
878.79  0.0355
878.80  0.0365
878.81  0.0376
878.82  0.0386
878.83  0.0396
878.84  0.0409
878.85  0.0422
878.86  0.0435
878.87  0.0448
878.88  0.0461
878.89  0.0474
878.90  0.0487
878.91  0.0500
878.92  0.0513
878.93  0.0526
878.94  0.0542
878.95  0.0558
878.96  0.0574
878.97  0.0591
878.98  0.0613
878.99  0.0630
879.00  0.0646
879.01  0.0663
879.02  0.0679
879.03  0.0696
879.04  0.0716
879.05  0.0736
879.06  0.0756
879.07  0.0776
879.08  0.0796
879.09  0.0817
879.10  0.0837
879.11  0.0857
879.12  0.0878
879.13  0.0898
879.14  0.0922
879.15  0.0946
879.16  0.0971
879.17  0.0995
879.18  0.1019
879.19  0.1044
879.20  0.1068
879.21  0.1093
879.22  0.1117
879.23  0.1142
879.24  0.1170
879.25  0.1199
879.26  0.1228
879.27  0.1257
879.28  0.1285
879.29  0.1314
879.30  0.1343
879.31  0.1373
879.32  0.1402
879.33  0.1431
879.34  0.1464
879.35  0.1497
879.36  0.1531
879.37  0.1564
879.38  0.1597
879.39  0.1631
879.40  0.1665
879.41  0.1699
879.42  0.1733
879.43  0.1767
879.44  0.1805
879.45  0.1843
879.46  0.1881
879.47  0.1919
879.48  0.1957
879.49  0.1995
879.50  0.2034
879.51  0.2073
879.52  0.2112
879.53  0.2150
879.54  0.2193
879.55  0.2235
879.56  0.2278
879.57  0.2320
879.58  0.2363
879.59  0.2406
879.60  0.2450
879.61  0.2493
879.62  0.2536
879.63  0.2580
879.64  0.2626
879.65  0.2673
879.66  0.2720
879.67  0.2766
879.68  0.2813
879.69  0.2861
879.70  0.2908
879.71  0.2956
879.72  0.3004
879.73  0.3052
879.74  0.3102
879.75  0.3152
879.76  0.3202
879.77  0.3252
879.78  0.3302
879.79  0.3354
879.80  0.3406
879.81  0.3457
879.82  0.3509
879.83  0.3561
879.84  0.3613
879.85  0.3666
879.86  0.3719
879.87  0.3772
879.88  0.3825
879.89  0.3879
879.90  0.3934
879.91  0.3989
879.92  0.4043
879.93  0.4098
879.94  0.4153
879.95  0.4207
879.96  0.4262
879.97  0.4316
879.98  0.4371
879.99  0.4427
880.00  0.4484
880.01  0.4541
880.02  0.4598
880.03  0.4655
880.04  0.4710
880.05  0.4765
880.06  0.4820
880.07  0.4875
880.08  0.4930
880.09  0.4988
880.10  0.5046
880.11  0.5103
880.12  0.5161
880.13  0.5219
880.14  0.5273
880.15  0.5328
880.16  0.5382
880.17  0.5437
880.18  0.5491
880.19  0.5549
880.20  0.5607
880.21  0.5664
880.22  0.5722
880.23  0.5786
880.24  0.5839
880.25  0.5892
880.26  0.5945
880.27  0.5998
880.28  0.6051
880.29  0.6108
880.30  0.6164
880.31  0.6221
880.32  0.6278
880.33  0.6334
880.34  0.6385
880.35  0.6435
880.36  0.6485
880.37  0.6536
880.38  0.6586
880.39  0.6640
880.40  0.6694
880.41  0.6749
880.42  0.6803
880.43  0.6857
880.44  0.6904
880.45  0.6951
880.46  0.6998
880.47  0.7044
880.48  0.7091
880.49  0.7142
880.50  0.7193
880.51  0.7244
880.52  0.7295
880.53  0.7346
880.54  0.7388
880.55  0.7431
880.56  0.7473
880.57  0.7516
880.58  0.7558
880.59  0.7605
880.60  0.7652
880.61  0.7699
880.62  0.7745
880.63  0.7792
880.64  0.7830
880.65  0.7868
880.66  0.7906
880.67  0.7944
880.68  0.7981
880.69  0.8024
880.70  0.8066
880.71  0.8108
880.72  0.8150
880.73  0.8192
880.74  0.8225
880.75  0.8258
880.76  0.8291
880.77  0.8324
880.78  0.8357
880.79  0.8394
880.80  0.8431
880.81  0.8468
880.82  0.8505
880.83  0.8542
880.84  0.8570
880.85  0.8599
880.86  0.8627
880.87  0.8656
880.88  0.8684
880.89  0.8716
880.90  0.8747
880.91  0.8779
880.92  0.8811
880.93  0.8842
880.94  0.8867
880.95  0.8891
880.96  0.8915
880.97  0.8939
880.98  0.8963
880.99  0.8989
881.00  0.9016
881.01  0.9042
881.02  0.9069
881.03  0.9095
881.04  0.9116
881.05  0.9136
881.06  0.9156
881.07  0.9176
881.08  0.9197
881.09  0.9218
881.10  0.9240
881.11  0.9261
881.12  0.9283
881.13  0.9304
881.14  0.9321
881.15  0.9338
881.16  0.9355
881.17  0.9372
881.18  0.9389
881.19  0.9406
881.20  0.9423
881.21  0.9440
881.22  0.9457
881.23  0.9473
881.24  0.9488
881.25  0.9502
881.26  0.9516
881.27  0.9531
881.28  0.9545
881.29  0.9557
881.30  0.9570
881.31  0.9583
881.32  0.9595
881.33  0.9608
881.34  0.9620
881.35  0.9632
881.36  0.9644
881.37  0.9656
881.38  0.9668
881.39  0.9677
881.40  0.9686
881.41  0.9695
881.42  0.9704
881.43  0.9713
881.44  0.9723
881.45  0.9733
881.46  0.9744
881.47  0.9754
881.48  0.9771
881.49  0.9777
881.50  0.9782
881.51  0.9788
881.52  0.9794
881.53  0.9800
881.54  0.9809
881.55  0.9819
881.56  0.9828
881.57  0.9837
881.58  0.9847
881.59  0.9850
881.60  0.9853
881.61  0.9856
881.62  0.9859
881.63  0.9862
881.64  0.9871
881.65  0.9879
881.66  0.9887
881.67  0.9895
881.68  0.9904
881.69  0.9905
881.70  0.9905
881.71  0.9906
881.72  0.9907
881.73  0.9908
881.74  0.9915
881.75  0.9923
881.76  0.9930
881.77  0.9938
881.78  0.9945
881.79  0.9944
881.80  0.9943
881.81  0.9942
881.82  0.9941
881.83  0.9940
881.84  0.9947
881.85  0.9953
881.86  0.9960
881.87  0.9966
881.88  0.9973
881.89  0.9971
881.90  0.9969
881.91  0.9966
881.92  0.9964
881.93  0.9962
881.94  0.9967
881.95  0.9973
881.96  0.9979
881.97  0.9984
881.98  0.9990
881.99  0.9987
882.00  0.9984
882.01  0.9981
882.02  0.9978
882.03  0.9975
882.04  0.9979
882.05  0.9984
882.06  0.9989
882.07  0.9994
882.08  0.9999
882.09  0.9995
882.10  0.9991
882.11  0.9988
882.12  0.9984
882.13  0.9981
882.14  0.9985
882.15  0.9988
882.16  0.9992
882.17  0.9996
882.18  1.0000
882.19  0.9996
882.20  0.9993
882.21  0.9989
882.22  0.9986
882.23  0.9982
882.24  0.9985
882.25  0.9988
882.26  0.9991
882.27  0.9994
882.28  0.9996
882.29  0.9993
882.30  0.9990
882.31  0.9987
882.32  0.9984
882.33  0.9980
882.34  0.9982
882.35  0.9984
882.36  0.9986
882.37  0.9988
882.38  0.9990
882.39  0.9987
882.40  0.9984
882.41  0.9982
882.42  0.9979
882.43  0.9977
882.44  0.9978
882.45  0.9978
882.46  0.9979
882.47  0.9980
882.48  0.9981
882.49  0.9979
882.50  0.9978
882.51  0.9976
882.52  0.9974
882.53  0.9972
882.54  0.9972
882.55  0.9972
882.56  0.9972
882.57  0.9972
882.58  0.9971
882.59  0.9971
882.60  0.9970
882.61  0.9969
882.62  0.9969
882.63  0.9968
882.64  0.9967
882.65  0.9965
882.66  0.9964
882.67  0.9963
882.68  0.9962
882.69  0.9962
882.70  0.9962
882.71  0.9962
882.72  0.9963
882.73  0.9969
882.74  0.9967
882.75  0.9965
882.76  0.9963
882.77  0.9961
882.78  0.9960
882.79  0.9961
882.80  0.9963
882.81  0.9964
882.82  0.9966
882.83  0.9967
882.84  0.9964
882.85  0.9962
882.86  0.9959
882.87  0.9956
882.88  0.9953
882.89  0.9956
882.90  0.9958
882.91  0.9960
882.92  0.9963
882.93  0.9965
882.94  0.9961
882.95  0.9958
882.96  0.9954
882.97  0.9951
882.98  0.9947
882.99  0.9950
883.00  0.9953
883.01  0.9956
883.02  0.9959
883.03  0.9962
883.04  0.9958
883.05  0.9954
883.06  0.9950
883.07  0.9945
883.08  0.9941
883.09  0.9945
883.10  0.9948
883.11  0.9951
883.12  0.9954
883.13  0.9958
883.14  0.9953
883.15  0.9949
883.16  0.9944
883.17  0.9939
883.18  0.9935
883.19  0.9938
883.20  0.9942
883.21  0.9945
883.22  0.9948
883.23  0.9951
883.24  0.9947
883.25  0.9942
883.26  0.9937
883.27  0.9932
883.28  0.9928
883.29  0.9931
883.30  0.9934
883.31  0.9937
883.32  0.9940
883.33  0.9943
883.34  0.9939
883.35  0.9934
883.36  0.9929
883.37  0.9925
883.38  0.9920
883.39  0.9923
883.40  0.9925
883.41  0.9928
883.42  0.9931
883.43  0.9933
883.44  0.9929
883.45  0.9925
883.46  0.9920
883.47  0.9916
883.48  0.9912
883.49  0.9914
883.50  0.9916
883.51  0.9918
883.52  0.9920
883.53  0.9922
883.54  0.9918
883.55  0.9914
883.56  0.9911
883.57  0.9907
883.58  0.9903
883.59  0.9904
883.60  0.9906
883.61  0.9907
883.62  0.9908
883.63  0.9910
883.64  0.9907
883.65  0.9904
883.66  0.9901
883.67  0.9898
883.68  0.9895
883.69  0.9896
883.70  0.9896
883.71  0.9897
883.72  0.9897
883.73  0.9898
883.74  0.9890
883.75  0.9888
883.76  0.9886
883.77  0.9885
883.78  0.9883
883.79  0.9883
883.80  0.9883
883.81  0.9882
883.82  0.9882
883.83  0.9882
883.84  0.9881
883.85  0.9881
883.86  0.9880
883.87  0.9879
883.88  0.9878
883.89  0.9877
883.90  0.9876
883.91  0.9875
883.92  0.9874
883.93  0.9872
883.94  0.9873
883.95  0.9873
883.96  0.9873
883.97  0.9873
883.98  0.9880
883.99  0.9878
884.00  0.9876
884.01  0.9874
884.02  0.9872
884.03  0.9870
884.04  0.9872
884.05  0.9873
884.06  0.9875
884.07  0.9876
884.08  0.9878
884.09  0.9875
884.10  0.9872
884.11  0.9869
884.12  0.9867
884.13  0.9864
884.14  0.9866
884.15  0.9868
884.16  0.9871
884.17  0.9873
884.18  0.9875
884.19  0.9872
884.20  0.9868
884.21  0.9865
884.22  0.9861
884.23  0.9858
884.24  0.9861
884.25  0.9864
884.26  0.9867
884.27  0.9870
884.28  0.9872
884.29  0.9868
884.30  0.9864
884.31  0.9860
884.32  0.9856
884.33  0.9852
884.34  0.9855
884.35  0.9858
884.36  0.9862
884.37  0.9865
884.38  0.9868
884.39  0.9864
884.40  0.9859
884.41  0.9855
884.42  0.9850
884.43  0.9846
884.44  0.9849
884.45  0.9852
884.46  0.9855
884.47  0.9859
884.48  0.9862
884.49  0.9857
884.50  0.9853
884.51  0.9848
884.52  0.9843
884.53  0.9838
884.54  0.9841
884.55  0.9845
884.56  0.9848
884.57  0.9851
884.58  0.9854
884.59  0.9849
884.60  0.9845
884.61  0.9840
884.62  0.9835
884.63  0.9831
884.64  0.9833
884.65  0.9836
884.66  0.9839
884.67  0.9841
884.68  0.9844
884.69  0.9840
884.70  0.9835
884.71  0.9831
884.72  0.9827
884.73  0.9822
884.74  0.9824
884.75  0.9826
884.76  0.9828
884.77  0.9830
884.78  0.9833
884.79  0.9829
884.80  0.9825
884.81  0.9821
884.82  0.9818
884.83  0.9814
884.84  0.9815
884.85  0.9817
884.86  0.9818
884.87  0.9819
884.88  0.9820
884.89  0.9818
884.90  0.9815
884.91  0.9812
884.92  0.9809
884.93  0.9806
884.94  0.9806
884.95  0.9807
884.96  0.9807
884.97  0.9808
884.98  0.9808
884.99  0.9801
885.00  0.9799
885.01  0.9797
885.02  0.9795
885.03  0.9793
885.04  0.9793
885.05  0.9793
885.06  0.9792
885.07  0.9792
885.08  0.9792
885.09  0.9791
885.10  0.9790
885.11  0.9789
885.12  0.9788
885.13  0.9787
885.14  0.9786
885.15  0.9785
885.16  0.9783
885.17  0.9782
885.18  0.9781
885.19  0.9781
885.20  0.9781
885.21  0.9781
885.22  0.9781
885.23  0.9787
885.24  0.9785
885.25  0.9783
885.26  0.9781
885.27  0.9779
885.28  0.9777
885.29  0.9778
885.30  0.9780
885.31  0.9781
885.32  0.9782
885.33  0.9783
885.34  0.9781
885.35  0.9778
885.36  0.9775
885.37  0.9772
885.38  0.9769
885.39  0.9771
885.40  0.9773
885.41  0.9776
885.42  0.9778
885.43  0.9780
885.44  0.9776
885.45  0.9773
885.46  0.9769
885.47  0.9765
885.48  0.9762
885.49  0.9764
885.50  0.9767
885.51  0.9770
885.52  0.9773
885.53  0.9775
885.54  0.9771
885.55  0.9767
885.56  0.9763
885.57  0.9758
885.58  0.9754
885.59  0.9757
885.60  0.9760
885.61  0.9763
885.62  0.9766
885.63  0.9769
885.64  0.9765
885.65  0.9760
885.66  0.9756
885.67  0.9751
885.68  0.9746
885.69  0.9749
885.70  0.9753
885.71  0.9756
885.72  0.9759
885.73  0.9762
885.74  0.9757
885.75  0.9752
885.76  0.9747
885.77  0.9743
885.78  0.9738
885.79  0.9741
885.80  0.9744
885.81  0.9746
885.82  0.9749
885.83  0.9752
885.84  0.9748
885.85  0.9743
885.86  0.9738
885.87  0.9733
885.88  0.9729
885.89  0.9731
885.90  0.9733
885.91  0.9736
885.92  0.9738
885.93  0.9741
885.94  0.9736
885.95  0.9732
885.96  0.9728
885.97  0.9723
885.98  0.9719
885.99  0.9721
886.00  0.9723
886.01  0.9724
886.02  0.9726
886.03  0.9728
886.04  0.9724
886.05  0.9720
886.06  0.9717
886.07  0.9713
886.08  0.9709
886.09  0.9710
886.10  0.9711
886.11  0.9712
886.12  0.9714
886.13  0.9715
886.14  0.9712
886.15  0.9709
886.16  0.9706
886.17  0.9703
886.18  0.9700
886.19  0.9700
886.20  0.9700
886.21  0.9701
886.22  0.9701
886.23  0.9701
886.24  0.9693
886.25  0.9692
886.26  0.9690
886.27  0.9688
886.28  0.9686
886.29  0.9686
886.30  0.9685
886.31  0.9685
886.32  0.9685
886.33  0.9684
886.34  0.9684
886.35  0.9683
886.36  0.9682
886.37  0.9681
886.38  0.9680
886.39  0.9679
886.40  0.9677
886.41  0.9676
886.42  0.9675
886.43  0.9673
886.44  0.9673
886.45  0.9673
886.46  0.9674
886.47  0.9674
886.48  0.9680
886.49  0.9678
886.50  0.9676
886.51  0.9674
886.52  0.9672
886.53  0.9670
886.54  0.9671
886.55  0.9672
886.56  0.9673
886.57  0.9675
886.58  0.9676
886.59  0.9673
886.60  0.9670
886.61  0.9668
886.62  0.9665
886.63  0.9662
886.64  0.9664
886.65  0.9666
886.66  0.9668
886.67  0.9670
886.68  0.9672
886.69  0.9669
886.70  0.9665
886.71  0.9662
886.72  0.9658
886.73  0.9654
886.74  0.9657
886.75  0.9660
886.76  0.9662
886.77  0.9665
886.78  0.9668
886.79  0.9664
886.80  0.9660
886.81  0.9655
886.82  0.9651
886.83  0.9647
886.84  0.9650
886.85  0.9653
886.86  0.9656
886.87  0.9659
886.88  0.9662
886.89  0.9657
886.90  0.9653
886.91  0.9648
886.92  0.9644
886.93  0.9639
886.94  0.9642
886.95  0.9645
886.96  0.9648
886.97  0.9651
886.98  0.9654
886.99  0.9650
887.00  0.9645
887.01  0.9640
887.02  0.9635
887.03  0.9631
887.04  0.9633
887.05  0.9636
887.06  0.9639
887.07  0.9642
887.08  0.9645
887.09  0.9640
887.10  0.9635
887.11  0.9631
887.12  0.9626
887.13  0.9621
887.14  0.9624
887.15  0.9626
887.16  0.9629
887.17  0.9631
887.18  0.9634
887.19  0.9629
887.20  0.9625
887.21  0.9620
887.22  0.9616
887.23  0.9612
887.24  0.9613
887.25  0.9615
887.26  0.9617
887.27  0.9619
887.28  0.9621
887.29  0.9617
887.30  0.9613
887.31  0.9610
887.32  0.9606
887.33  0.9602
887.34  0.9603
887.35  0.9604
887.36  0.9605
887.37  0.9606
887.38  0.9608
887.39  0.9605
887.40  0.9602
887.41  0.9599
887.42  0.9596
887.43  0.9593
887.44  0.9593
887.45  0.9593
887.46  0.9594
887.47  0.9594
887.48  0.9594
887.49  0.9586
887.50  0.9585
887.51  0.9583
887.52  0.9581
887.53  0.9579
887.54  0.9579
887.55  0.9578
887.56  0.9578
887.57  0.9578
887.58  0.9577
887.59  0.9577
887.60  0.9576
887.61  0.9575
887.62  0.9574
887.63  0.9573
887.64  0.9572
887.65  0.9570
887.66  0.9569
887.67  0.9568
887.68  0.9566
887.69  0.9566
887.70  0.9567
887.71  0.9567
887.72  0.9567
887.73  0.9567
887.74  0.9565
887.75  0.9562
887.76  0.9560
887.77  0.9557
887.78  0.9555
887.79  0.9556
887.80  0.9557
887.81  0.9558
887.82  0.9559
887.83  0.9560
887.84  0.9556
887.85  0.9553
887.86  0.9550
887.87  0.9546
887.88  0.9543
887.89  0.9545
887.90  0.9546
887.91  0.9548
887.92  0.9549
887.93  0.9551
887.94  0.9547
887.95  0.9542
887.96  0.9538
887.97  0.9534
887.98  0.9529
887.99  0.9531
888.00  0.9533
888.01  0.9535
888.02  0.9537
888.03  0.9539
888.04  0.9534
888.05  0.9529
888.06  0.9523
888.07  0.9518
888.08  0.9513
888.09  0.9515
888.10  0.9517
888.11  0.9518
888.12  0.9520
888.13  0.9522
888.14  0.9516
888.15  0.9510
888.16  0.9504
888.17  0.9498
888.18  0.9492
888.19  0.9493
888.20  0.9495
888.21  0.9496
888.22  0.9497
888.23  0.9499
888.24  0.9492
888.25  0.9485
888.26  0.9478
888.27  0.9471
888.28  0.9464
888.29  0.9465
888.30  0.9465
888.31  0.9466
888.32  0.9467
888.33  0.9467
888.34  0.9460
888.35  0.9452
888.36  0.9444
888.37  0.9436
888.38  0.9429
888.39  0.9428
888.40  0.9427
888.41  0.9427
888.42  0.9426
888.43  0.9425
888.44  0.9417
888.45  0.9408
888.46  0.9400
888.47  0.9391
888.48  0.9383
888.49  0.9381
888.50  0.9378
888.51  0.9376
888.52  0.9374
888.53  0.9371
888.54  0.9362
888.55  0.9353
888.56  0.9343
888.57  0.9334
888.58  0.9325
888.59  0.9320
888.60  0.9316
888.61  0.9311
888.62  0.9307
888.63  0.9302
888.64  0.9292
888.65  0.9282
888.66  0.9271
888.67  0.9261
888.68  0.9251
888.69  0.9244
888.70  0.9237
888.71  0.9230
888.72  0.9223
888.73  0.9216
888.74  0.9199
888.75  0.9187
888.76  0.9176
888.77  0.9165
888.78  0.9154
888.79  0.9144
888.80  0.9134
888.81  0.9124
888.82  0.9114
888.83  0.9105
888.84  0.9092
888.85  0.9079
888.86  0.9066
888.87  0.9053
888.88  0.9040
888.89  0.9027
888.90  0.9014
888.91  0.9000
888.92  0.8987
888.93  0.8974
888.94  0.8959
888.95  0.8944
888.96  0.8929
888.97  0.8914
888.98  0.8899
888.99  0.8882
889.00  0.8865
889.01  0.8848
889.02  0.8830
889.03  0.8813
889.04  0.8796
889.05  0.8778
889.06  0.8761
889.07  0.8744
889.08  0.8726
889.09  0.8705
889.10  0.8683
889.11  0.8662
889.12  0.8640
889.13  0.8619
889.14  0.8598
889.15  0.8578
889.16  0.8557
889.17  0.8537
889.18  0.8517
889.19  0.8491
889.20  0.8464
889.21  0.8438
889.22  0.8412
889.23  0.8386
889.24  0.8362
889.25  0.8338
889.26  0.8314
889.27  0.8290
889.28  0.8266
889.29  0.8236
889.30  0.8205
889.31  0.8174
889.32  0.8143
889.33  0.8112
889.34  0.8084
889.35  0.8056
889.36  0.8028
889.37  0.8000
889.38  0.7973
889.39  0.7937
889.40  0.7901
889.41  0.7865
889.42  0.7830
889.43  0.7794
889.44  0.7762
889.45  0.7730
889.46  0.7698
889.47  0.7666
889.48  0.7633
889.49  0.7593
889.50  0.7553
889.51  0.7512
889.52  0.7472
889.53  0.7432
889.54  0.7395
889.55  0.7359
889.56  0.7322
889.57  0.7286
889.58  0.7249
889.59  0.7205
889.60  0.7160
889.61  0.7115
889.62  0.7071
889.63  0.7026
889.64  0.6986
889.65  0.6945
889.66  0.6904
889.67  0.6864
889.68  0.6823
889.69  0.6775
889.70  0.6726
889.71  0.6678
889.72  0.6630
889.73  0.6581
889.74  0.6537
889.75  0.6492
889.76  0.6448
889.77  0.6404
889.78  0.6359
889.79  0.6308
889.80  0.6256
889.81  0.6205
889.82  0.6154
889.83  0.6103
889.84  0.6055
889.85  0.6007
889.86  0.5960
889.87  0.5912
889.88  0.5865
889.89  0.5811
889.90  0.5758
889.91  0.5705
889.92  0.5651
889.93  0.5598
889.94  0.5548
889.95  0.5498
889.96  0.5448
889.97  0.5398
889.98  0.5348
889.99  0.5288
890.00  0.5234
890.01  0.5180
890.02  0.5126
890.03  0.5072
890.04  0.5021
890.05  0.4970
890.06  0.4919
890.07  0.4868
890.08  0.4817
890.09  0.4762
890.10  0.4708
890.11  0.4654
890.12  0.4600
890.13  0.4546
890.14  0.4495
890.15  0.4443
890.16  0.4392
890.17  0.4340
890.18  0.4289
890.19  0.4236
890.20  0.4183
890.21  0.4130
890.22  0.4077
890.23  0.4024
890.24  0.3973
890.25  0.3922
890.26  0.3871
890.27  0.3821
890.28  0.3770
890.29  0.3719
890.30  0.3668
890.31  0.3617
890.32  0.3566
890.33  0.3515
890.34  0.3466
890.35  0.3417
890.36  0.3368
890.37  0.3319
890.38  0.3270
890.39  0.3222
890.40  0.3174
890.41  0.3126
890.42  0.3079
890.43  0.3031
890.44  0.2984
890.45  0.2938
890.46  0.2891
890.47  0.2845
890.48  0.2798
890.49  0.2754
890.50  0.2710
890.51  0.2666
890.52  0.2621
890.53  0.2577
890.54  0.2534
890.55  0.2491
890.56  0.2448
890.57  0.2405
890.58  0.2362
890.59  0.2322
890.60  0.2282
890.61  0.2241
890.62  0.2201
890.63  0.2161
890.64  0.2122
890.65  0.2083
890.66  0.2044
890.67  0.2004
890.68  0.1965
890.69  0.1930
890.70  0.1894
890.71  0.1858
890.72  0.1823
890.73  0.1787
890.74  0.1752
890.75  0.1717
890.76  0.1682
890.77  0.1647
890.78  0.1612
890.79  0.1581
890.80  0.1550
890.81  0.1519
890.82  0.1488
890.83  0.1457
890.84  0.1426
890.85  0.1395
890.86  0.1365
890.87  0.1334
890.88  0.1303
890.89  0.1277
890.90  0.1250
890.91  0.1223
890.92  0.1197
890.93  0.1170
890.94  0.1144
890.95  0.1117
890.96  0.1091
890.97  0.1065
890.98  0.1039
890.99  0.1016
891.00  0.0994
891.01  0.0971
891.02  0.0949
891.03  0.0926
891.04  0.0904
891.05  0.0882
891.06  0.0860
891.07  0.0838
891.08  0.0815
891.09  0.0797
891.10  0.0778
891.11  0.0760
891.12  0.0741
891.13  0.0723
891.14  0.0704
891.15  0.0686
891.16  0.0667
891.17  0.0649
891.18  0.0631
891.19  0.0616
891.20  0.0601
891.21  0.0585
891.22  0.0570
891.23  0.0555
891.24  0.0535
891.25  0.0520
891.26  0.0505
891.27  0.0491
891.28  0.0476
891.29  0.0464
891.30  0.0452
891.31  0.0441
891.32  0.0429
891.33  0.0417
891.34  0.0405
891.35  0.0393
891.36  0.0382
891.37  0.0370
891.38  0.0358
891.39  0.0349
891.40  0.0339
891.41  0.0330
891.42  0.0321
891.43  0.0311
891.44  0.0302
891.45  0.0293
891.46  0.0284
891.47  0.0274
891.48  0.0265
891.49  0.0258
891.50  0.0251
891.51  0.0243
891.52  0.0236
891.53  0.0229
891.54  0.0222
891.55  0.0215
891.56  0.0208
891.57  0.0200
891.58  0.0193
891.59  0.0188
891.60  0.0182
891.61  0.0177
891.62  0.0171
891.63  0.0166
891.64  0.0161
891.65  0.0155
891.66  0.0150
891.67  0.0144
891.68  0.0139
891.69  0.0135
891.70  0.0131
891.71  0.0127
891.72  0.0123
891.73  0.0118
891.74  0.0114
891.75  0.0110
891.76  0.0106
891.77  0.0102
891.78  0.0098
891.79  0.0095
891.80  0.0092
891.81  0.0089
891.82  0.0086
891.83  0.0083
891.84  0.0080
891.85  0.0077
891.86  0.0074
891.87  0.0071
891.88  0.0068
891.89  0.0066
891.90  0.0064
891.91  0.0062
891.92  0.0060
891.93  0.0058
891.94  0.0055
891.95  0.0053
891.96  0.0051
891.97  0.0049
891.98  0.0047
891.99  0.0045
892.00  0.0044
892.01  0.0042
892.02  0.0041
892.03  0.0039
892.04  0.0038
892.05  0.0036
892.06  0.0035
892.07  0.0033
892.08  0.0032
892.09  0.0031
892.10  0.0030
892.11  0.0028
892.12  0.0027
892.13  0.0026
892.14  0.0025
892.15  0.0024
892.16  0.0023
892.17  0.0022
892.18  0.0021
892.19  0.0020
892.20  0.0020
892.21  0.0019
892.22  0.0018
892.23  0.0017
892.24  0.0017
892.25  0.0016
892.26  0.0015
892.27  0.0015
892.28  0.0014
892.29  0.0013
892.30  0.0013
892.31  0.0012
892.32  0.0012
892.33  0.0011
892.34  0.0011
892.35  0.0010
892.36  0.0010
892.37  0.0009
892.38  0.0009
892.39  0.0009
892.40  0.0008
892.41  0.0008
892.42  0.0008
892.43  0.0007
892.44  0.0007
892.45  0.0007
892.46  0.0006
892.47  0.0006
892.48  0.0006
