# Provided by ESA in 10/2012
# Important Notes:
# The data contained here correspond to the OLCI Spectral Model CDR derived in 2011.
# The data have been calculated for the camera 4, pointing nadir.
997.70  0.0007
997.71  0.0007
997.72  0.0008
997.73  0.0008
997.74  0.0008
997.75  0.0009
997.76  0.0009
997.77  0.0009
997.78  0.0010
997.79  0.0010
997.80  0.0011
997.81  0.0011
997.82  0.0012
997.83  0.0012
997.84  0.0013
997.85  0.0014
997.86  0.0014
997.87  0.0015
997.88  0.0015
997.89  0.0016
997.90  0.0016
997.91  0.0017
997.92  0.0018
997.93  0.0019
997.94  0.0020
997.95  0.0021
997.96  0.0022
997.97  0.0022
997.98  0.0023
997.99  0.0024
998.00  0.0025
998.01  0.0026
998.02  0.0028
998.03  0.0029
998.04  0.0030
998.05  0.0031
998.06  0.0033
998.07  0.0034
998.08  0.0035
998.09  0.0036
998.10  0.0037
998.11  0.0039
998.12  0.0041
998.13  0.0043
998.14  0.0045
998.15  0.0046
998.16  0.0048
998.17  0.0050
998.18  0.0052
998.19  0.0054
998.20  0.0055
998.21  0.0058
998.22  0.0060
998.23  0.0063
998.24  0.0065
998.25  0.0068
998.26  0.0070
998.27  0.0073
998.28  0.0075
998.29  0.0078
998.30  0.0080
998.31  0.0084
998.32  0.0087
998.33  0.0091
998.34  0.0094
998.35  0.0098
998.36  0.0101
998.37  0.0105
998.38  0.0108
998.39  0.0112
998.40  0.0115
998.41  0.0120
998.42  0.0125
998.43  0.0129
998.44  0.0134
998.45  0.0139
998.46  0.0144
998.47  0.0148
998.48  0.0153
998.49  0.0158
998.50  0.0162
998.51  0.0169
998.52  0.0175
998.53  0.0181
998.54  0.0188
998.55  0.0194
998.56  0.0200
998.57  0.0207
998.58  0.0213
998.59  0.0219
998.60  0.0225
998.61  0.0234
998.62  0.0242
998.63  0.0250
998.64  0.0259
998.65  0.0267
998.66  0.0275
998.67  0.0283
998.68  0.0292
998.69  0.0300
998.70  0.0308
998.71  0.0319
998.72  0.0330
998.73  0.0340
998.74  0.0351
998.75  0.0362
998.76  0.0372
998.77  0.0383
998.78  0.0394
998.79  0.0404
998.80  0.0415
998.81  0.0428
998.82  0.0442
998.83  0.0455
998.84  0.0469
998.85  0.0483
998.86  0.0496
998.87  0.0510
998.88  0.0523
998.89  0.0537
998.90  0.0550
998.91  0.0567
998.92  0.0584
998.93  0.0600
998.94  0.0617
998.95  0.0641
998.96  0.0658
998.97  0.0675
998.98  0.0692
998.99  0.0709
999.00  0.0726
999.01  0.0747
999.02  0.0768
999.03  0.0789
999.04  0.0810
999.05  0.0831
999.06  0.0852
999.07  0.0873
999.08  0.0894
999.09  0.0915
999.10  0.0936
999.11  0.0961
999.12  0.0987
999.13  0.1012
999.14  0.1037
999.15  0.1062
999.16  0.1087
999.17  0.1113
999.18  0.1138
999.19  0.1163
999.20  0.1189
999.21  0.1219
999.22  0.1248
999.23  0.1278
999.24  0.1308
999.25  0.1337
999.26  0.1367
999.27  0.1397
999.28  0.1427
999.29  0.1457
999.30  0.1487
999.31  0.1522
999.32  0.1556
999.33  0.1591
999.34  0.1625
999.35  0.1660
999.36  0.1694
999.37  0.1729
999.38  0.1764
999.39  0.1799
999.40  0.1834
999.41  0.1873
999.42  0.1912
999.43  0.1951
999.44  0.1991
999.45  0.2030
999.46  0.2070
999.47  0.2109
999.48  0.2149
999.49  0.2189
999.50  0.2229
999.51  0.2272
999.52  0.2316
999.53  0.2360
999.54  0.2403
999.55  0.2447
999.56  0.2492
999.57  0.2536
999.58  0.2581
999.59  0.2625
999.60  0.2670
999.61  0.2718
999.62  0.2765
999.63  0.2813
999.64  0.2861
999.65  0.2909
999.66  0.2958
999.67  0.3007
999.68  0.3056
999.69  0.3105
999.70  0.3153
999.71  0.3205
999.72  0.3256
999.73  0.3307
999.74  0.3359
999.75  0.3410
999.76  0.3463
999.77  0.3515
999.78  0.3568
999.79  0.3621
999.80  0.3673
999.81  0.3727
999.82  0.3781
999.83  0.3835
999.84  0.3889
999.85  0.3943
999.86  0.3999
999.87  0.4054
999.88  0.4110
999.89  0.4166
999.90  0.4221
999.91  0.4277
999.92  0.4333
999.93  0.4388
999.94  0.4443
999.95  0.4499
999.96  0.4557
999.97  0.4614
999.98  0.4672
999.99  0.4730
1000.00 0.4787
1000.01 0.4843
1000.02 0.4899
1000.03 0.4955
1000.04 0.5011
1000.05 0.5067
1000.06 0.5125
1000.07 0.5184
1000.08 0.5243
1000.09 0.5301
1000.10 0.5360
1000.11 0.5415
1000.12 0.5470
1000.13 0.5525
1000.14 0.5580
1000.15 0.5635
1000.16 0.5693
1000.17 0.5752
1000.18 0.5810
1000.19 0.5874
1000.20 0.5933
1000.21 0.5986
1000.22 0.6040
1000.23 0.6093
1000.24 0.6147
1000.25 0.6200
1000.26 0.6257
1000.27 0.6314
1000.28 0.6371
1000.29 0.6428
1000.30 0.6485
1000.31 0.6536
1000.32 0.6586
1000.33 0.6637
1000.34 0.6687
1000.35 0.6738
1000.36 0.6792
1000.37 0.6847
1000.38 0.6901
1000.39 0.6955
1000.40 0.7010
1000.41 0.7057
1000.42 0.7103
1000.43 0.7150
1000.44 0.7197
1000.45 0.7243
1000.46 0.7294
1000.47 0.7345
1000.48 0.7396
1000.49 0.7447
1000.50 0.7498
1000.51 0.7540
1000.52 0.7582
1000.53 0.7624
1000.54 0.7667
1000.55 0.7709
1000.56 0.7755
1000.57 0.7802
1000.58 0.7848
1000.59 0.7895
1000.60 0.7942
1000.61 0.7979
1000.62 0.8016
1000.63 0.8054
1000.64 0.8091
1000.65 0.8128
1000.66 0.8170
1000.67 0.8211
1000.68 0.8253
1000.69 0.8294
1000.70 0.8336
1000.71 0.8369
1000.72 0.8401
1000.73 0.8433
1000.74 0.8466
1000.75 0.8498
1000.76 0.8534
1000.77 0.8570
1000.78 0.8606
1000.79 0.8643
1000.80 0.8680
1000.81 0.8707
1000.82 0.8735
1000.83 0.8762
1000.84 0.8790
1000.85 0.8817
1000.86 0.8848
1000.87 0.8879
1000.88 0.8909
1000.89 0.8940
1000.90 0.8972
1000.91 0.8995
1000.92 0.9018
1000.93 0.9041
1000.94 0.9064
1000.95 0.9087
1000.96 0.9113
1000.97 0.9138
1000.98 0.9163
1000.99 0.9189
1001.00 0.9215
1001.01 0.9235
1001.02 0.9254
1001.03 0.9273
1001.04 0.9292
1001.05 0.9311
1001.06 0.9331
1001.07 0.9351
1001.08 0.9371
1001.09 0.9392
1001.10 0.9414
1001.11 0.9430
1001.12 0.9445
1001.13 0.9461
1001.14 0.9476
1001.15 0.9492
1001.16 0.9508
1001.17 0.9523
1001.18 0.9539
1001.19 0.9554
1001.20 0.9572
1001.21 0.9585
1001.22 0.9598
1001.23 0.9611
1001.24 0.9623
1001.25 0.9636
1001.26 0.9647
1001.27 0.9659
1001.28 0.9670
1001.29 0.9681
1001.30 0.9695
1001.31 0.9706
1001.32 0.9716
1001.33 0.9727
1001.34 0.9737
1001.35 0.9748
1001.36 0.9755
1001.37 0.9763
1001.38 0.9770
1001.39 0.9777
1001.40 0.9788
1001.41 0.9797
1001.42 0.9806
1001.43 0.9814
1001.44 0.9830
1001.45 0.9839
1001.46 0.9843
1001.47 0.9847
1001.48 0.9852
1001.49 0.9856
1001.50 0.9864
1001.51 0.9872
1001.52 0.9879
1001.53 0.9887
1001.54 0.9895
1001.55 0.9903
1001.56 0.9904
1001.57 0.9906
1001.58 0.9907
1001.59 0.9909
1001.60 0.9914
1001.61 0.9921
1001.62 0.9928
1001.63 0.9935
1001.64 0.9941
1001.65 0.9948
1001.66 0.9947
1001.67 0.9947
1001.68 0.9946
1001.69 0.9945
1001.70 0.9949
1001.71 0.9954
1001.72 0.9960
1001.73 0.9966
1001.74 0.9972
1001.75 0.9978
1001.76 0.9975
1001.77 0.9973
1001.78 0.9970
1001.79 0.9968
1001.80 0.9969
1001.81 0.9974
1001.82 0.9979
1001.83 0.9984
1001.84 0.9989
1001.85 0.9994
1001.86 0.9990
1001.87 0.9987
1001.88 0.9983
1001.89 0.9979
1001.90 0.9979
1001.91 0.9983
1001.92 0.9987
1001.93 0.9991
1001.94 0.9995
1001.95 1.0000
1001.96 0.9995
1001.97 0.9990
1001.98 0.9986
1001.99 0.9981
1002.00 0.9980
1002.01 0.9983
1002.02 0.9986
1002.03 0.9989
1002.04 0.9993
1002.05 0.9997
1002.06 0.9991
1002.07 0.9986
1002.08 0.9981
1002.09 0.9976
1002.10 0.9974
1002.11 0.9976
1002.12 0.9978
1002.13 0.9981
1002.14 0.9983
1002.15 0.9986
1002.16 0.9981
1002.17 0.9976
1002.18 0.9970
1002.19 0.9965
1002.20 0.9962
1002.21 0.9964
1002.22 0.9965
1002.23 0.9966
1002.24 0.9967
1002.25 0.9970
1002.26 0.9965
1002.27 0.9960
1002.28 0.9955
1002.29 0.9951
1002.30 0.9947
1002.31 0.9947
1002.32 0.9947
1002.33 0.9948
1002.34 0.9948
1002.35 0.9950
1002.36 0.9946
1002.37 0.9941
1002.38 0.9937
1002.39 0.9933
1002.40 0.9929
1002.41 0.9928
1002.42 0.9927
1002.43 0.9926
1002.44 0.9925
1002.45 0.9927
1002.46 0.9924
1002.47 0.9920
1002.48 0.9917
1002.49 0.9914
1002.50 0.9909
1002.51 0.9907
1002.52 0.9905
1002.53 0.9903
1002.54 0.9901
1002.55 0.9902
1002.56 0.9900
1002.57 0.9897
1002.58 0.9895
1002.59 0.9893
1002.60 0.9887
1002.61 0.9884
1002.62 0.9881
1002.63 0.9879
1002.64 0.9876
1002.65 0.9876
1002.66 0.9875
1002.67 0.9873
1002.68 0.9872
1002.69 0.9876
1002.70 0.9871
1002.71 0.9867
1002.72 0.9864
1002.73 0.9860
1002.74 0.9857
1002.75 0.9856
1002.76 0.9856
1002.77 0.9856
1002.78 0.9856
1002.79 0.9856
1002.80 0.9850
1002.81 0.9845
1002.82 0.9841
1002.83 0.9836
1002.84 0.9832
1002.85 0.9832
1002.86 0.9832
1002.87 0.9833
1002.88 0.9833
1002.89 0.9834
1002.90 0.9828
1002.91 0.9822
1002.92 0.9817
1002.93 0.9812
1002.94 0.9807
1002.95 0.9806
1002.96 0.9807
1002.97 0.9809
1002.98 0.9810
1002.99 0.9811
1003.00 0.9804
1003.01 0.9798
1003.02 0.9793
1003.03 0.9787
1003.04 0.9781
1003.05 0.9780
1003.06 0.9781
1003.07 0.9783
1003.08 0.9784
1003.09 0.9786
1003.10 0.9779
1003.11 0.9773
1003.12 0.9767
1003.13 0.9761
1003.14 0.9755
1003.15 0.9753
1003.16 0.9754
1003.17 0.9756
1003.18 0.9757
1003.19 0.9759
1003.20 0.9752
1003.21 0.9746
1003.22 0.9739
1003.23 0.9733
1003.24 0.9727
1003.25 0.9724
1003.26 0.9726
1003.27 0.9727
1003.28 0.9728
1003.29 0.9730
1003.30 0.9723
1003.31 0.9717
1003.32 0.9711
1003.33 0.9704
1003.34 0.9698
1003.35 0.9695
1003.36 0.9696
1003.37 0.9697
1003.38 0.9698
1003.39 0.9699
1003.40 0.9693
1003.41 0.9687
1003.42 0.9681
1003.43 0.9675
1003.44 0.9669
1003.45 0.9666
1003.46 0.9666
1003.47 0.9666
1003.48 0.9667
1003.49 0.9667
1003.50 0.9662
1003.51 0.9656
1003.52 0.9651
1003.53 0.9646
1003.54 0.9640
1003.55 0.9636
1003.56 0.9636
1003.57 0.9636
1003.58 0.9635
1003.59 0.9635
1003.60 0.9630
1003.61 0.9626
1003.62 0.9621
1003.63 0.9617
1003.64 0.9612
1003.65 0.9608
1003.66 0.9607
1003.67 0.9605
1003.68 0.9604
1003.69 0.9603
1003.70 0.9599
1003.71 0.9590
1003.72 0.9587
1003.73 0.9584
1003.74 0.9580
1003.75 0.9576
1003.76 0.9574
1003.77 0.9572
1003.78 0.9570
1003.79 0.9568
1003.80 0.9566
1003.81 0.9564
1003.82 0.9561
1003.83 0.9559
1003.84 0.9557
1003.85 0.9551
1003.86 0.9548
1003.87 0.9545
1003.88 0.9543
1003.89 0.9540
1003.90 0.9538
1003.91 0.9537
1003.92 0.9536
1003.93 0.9534
1003.94 0.9539
1003.95 0.9533
1003.96 0.9530
1003.97 0.9526
1003.98 0.9523
1003.99 0.9519
1004.00 0.9519
1004.01 0.9519
1004.02 0.9519
1004.03 0.9518
1004.04 0.9518
1004.05 0.9512
1004.06 0.9508
1004.07 0.9503
1004.08 0.9499
1004.09 0.9495
1004.10 0.9495
1004.11 0.9496
1004.12 0.9497
1004.13 0.9497
1004.14 0.9498
1004.15 0.9491
1004.16 0.9486
1004.17 0.9481
1004.18 0.9476
1004.19 0.9471
1004.20 0.9472
1004.21 0.9474
1004.22 0.9475
1004.23 0.9476
1004.24 0.9477
1004.25 0.9470
1004.26 0.9465
1004.27 0.9459
1004.28 0.9454
1004.29 0.9448
1004.30 0.9449
1004.31 0.9451
1004.32 0.9452
1004.33 0.9454
1004.34 0.9455
1004.35 0.9448
1004.36 0.9442
1004.37 0.9436
1004.38 0.9431
1004.39 0.9425
1004.40 0.9426
1004.41 0.9428
1004.42 0.9429
1004.43 0.9431
1004.44 0.9432
1004.45 0.9425
1004.46 0.9419
1004.47 0.9413
1004.48 0.9407
1004.49 0.9401
1004.50 0.9402
1004.51 0.9403
1004.52 0.9404
1004.53 0.9406
1004.54 0.9407
1004.55 0.9401
1004.56 0.9394
1004.57 0.9388
1004.58 0.9382
1004.59 0.9376
1004.60 0.9377
1004.61 0.9378
1004.62 0.9379
1004.63 0.9380
1004.64 0.9381
1004.65 0.9374
1004.66 0.9369
1004.67 0.9363
1004.68 0.9357
1004.69 0.9351
1004.70 0.9352
1004.71 0.9352
1004.72 0.9352
1004.73 0.9353
1004.74 0.9353
1004.75 0.9348
1004.76 0.9342
1004.77 0.9337
1004.78 0.9332
1004.79 0.9327
1004.80 0.9326
1004.81 0.9326
1004.82 0.9326
1004.83 0.9325
1004.84 0.9325
1004.85 0.9320
1004.86 0.9316
1004.87 0.9311
1004.88 0.9307
1004.89 0.9303
1004.90 0.9301
1004.91 0.9300
1004.92 0.9299
1004.93 0.9298
1004.94 0.9297
1004.95 0.9293
1004.96 0.9284
1004.97 0.9281
1004.98 0.9278
1004.99 0.9274
1005.00 0.9273
1005.01 0.9271
1005.02 0.9269
1005.03 0.9267
1005.04 0.9265
1005.05 0.9263
1005.06 0.9261
1005.07 0.9258
1005.08 0.9256
1005.09 0.9254
1005.10 0.9251
1005.11 0.9248
1005.12 0.9245
1005.13 0.9242
1005.14 0.9240
1005.15 0.9238
1005.16 0.9237
1005.17 0.9235
1005.18 0.9234
1005.19 0.9238
1005.20 0.9235
1005.21 0.9231
1005.22 0.9228
1005.23 0.9224
1005.24 0.9221
1005.25 0.9221
1005.26 0.9220
1005.27 0.9220
1005.28 0.9220
1005.29 0.9220
1005.30 0.9215
1005.31 0.9211
1005.32 0.9207
1005.33 0.9203
1005.34 0.9199
1005.35 0.9199
1005.36 0.9200
1005.37 0.9200
1005.38 0.9200
1005.39 0.9201
1005.40 0.9196
1005.41 0.9191
1005.42 0.9186
1005.43 0.9181
1005.44 0.9176
1005.45 0.9177
1005.46 0.9179
1005.47 0.9180
1005.48 0.9181
1005.49 0.9182
1005.50 0.9176
1005.51 0.9171
1005.52 0.9165
1005.53 0.9160
1005.54 0.9154
1005.55 0.9156
1005.56 0.9157
1005.57 0.9158
1005.58 0.9160
1005.59 0.9161
1005.60 0.9155
1005.61 0.9149
1005.62 0.9143
1005.63 0.9138
1005.64 0.9132
1005.65 0.9133
1005.66 0.9135
1005.67 0.9136
1005.68 0.9137
1005.69 0.9139
1005.70 0.9133
1005.71 0.9127
1005.72 0.9121
1005.73 0.9115
1005.74 0.9109
1005.75 0.9110
1005.76 0.9111
1005.77 0.9112
1005.78 0.9113
1005.79 0.9114
1005.80 0.9109
1005.81 0.9103
1005.82 0.9097
1005.83 0.9091
1005.84 0.9085
1005.85 0.9085
1005.86 0.9086
1005.87 0.9087
1005.88 0.9088
1005.89 0.9089
1005.90 0.9083
1005.91 0.9077
1005.92 0.9072
1005.93 0.9066
1005.94 0.9060
1005.95 0.9061
1005.96 0.9061
1005.97 0.9061
1005.98 0.9061
1005.99 0.9062
1006.00 0.9056
1006.01 0.9051
1006.02 0.9046
1006.03 0.9041
1006.04 0.9036
1006.05 0.9036
1006.06 0.9035
1006.07 0.9035
1006.08 0.9034
1006.09 0.9034
1006.10 0.9030
1006.11 0.9025
1006.12 0.9021
1006.13 0.9017
1006.14 0.9012
1006.15 0.9011
1006.16 0.9010
1006.17 0.9009
1006.18 0.9007
1006.19 0.9006
1006.20 0.8997
1006.21 0.8994
1006.22 0.8991
1006.23 0.8988
1006.24 0.8985
1006.25 0.8983
1006.26 0.8981
1006.27 0.8979
1006.28 0.8977
1006.29 0.8975
1006.30 0.8973
1006.31 0.8971
1006.32 0.8968
1006.33 0.8966
1006.34 0.8964
1006.35 0.8961
1006.36 0.8958
1006.37 0.8955
1006.38 0.8953
1006.39 0.8950
1006.40 0.8948
1006.41 0.8947
1006.42 0.8946
1006.43 0.8944
1006.44 0.8948
1006.45 0.8945
1006.46 0.8941
1006.47 0.8938
1006.48 0.8935
1006.49 0.8931
1006.50 0.8931
1006.51 0.8931
1006.52 0.8930
1006.53 0.8930
1006.54 0.8930
1006.55 0.8925
1006.56 0.8921
1006.57 0.8917
1006.58 0.8913
1006.59 0.8909
1006.60 0.8909
1006.61 0.8910
1006.62 0.8910
1006.63 0.8910
1006.64 0.8911
1006.65 0.8906
1006.66 0.8901
1006.67 0.8896
1006.68 0.8892
1006.69 0.8887
1006.70 0.8888
1006.71 0.8889
1006.72 0.8890
1006.73 0.8890
1006.74 0.8891
1006.75 0.8886
1006.76 0.8881
1006.77 0.8875
1006.78 0.8870
1006.79 0.8865
1006.80 0.8866
1006.81 0.8867
1006.82 0.8868
1006.83 0.8870
1006.84 0.8871
1006.85 0.8865
1006.86 0.8859
1006.87 0.8854
1006.88 0.8848
1006.89 0.8842
1006.90 0.8843
1006.91 0.8845
1006.92 0.8846
1006.93 0.8847
1006.94 0.8849
1006.95 0.8843
1006.96 0.8837
1006.97 0.8831
1006.98 0.8825
1006.99 0.8819
1007.00 0.8820
1007.01 0.8821
1007.02 0.8822
1007.03 0.8823
1007.04 0.8824
1007.05 0.8819
1007.06 0.8813
1007.07 0.8807
1007.08 0.8801
1007.09 0.8795
1007.10 0.8796
1007.11 0.8797
1007.12 0.8797
1007.13 0.8798
1007.14 0.8799
1007.15 0.8793
1007.16 0.8788
1007.17 0.8782
1007.18 0.8777
1007.19 0.8771
1007.20 0.8771
1007.21 0.8771
1007.22 0.8772
1007.23 0.8772
1007.24 0.8772
1007.25 0.8767
1007.26 0.8762
1007.27 0.8757
1007.28 0.8752
1007.29 0.8747
1007.30 0.8746
1007.31 0.8746
1007.32 0.8745
1007.33 0.8745
1007.34 0.8744
1007.35 0.8740
1007.36 0.8736
1007.37 0.8732
1007.38 0.8727
1007.39 0.8723
1007.40 0.8722
1007.41 0.8721
1007.42 0.8719
1007.43 0.8718
1007.44 0.8717
1007.45 0.8708
1007.46 0.8705
1007.47 0.8702
1007.48 0.8699
1007.49 0.8696
1007.50 0.8694
1007.51 0.8692
1007.52 0.8690
1007.53 0.8688
1007.54 0.8686
1007.55 0.8684
1007.56 0.8682
1007.57 0.8680
1007.58 0.8677
1007.59 0.8675
1007.60 0.8672
1007.61 0.8669
1007.62 0.8667
1007.63 0.8664
1007.64 0.8661
1007.65 0.8660
1007.66 0.8658
1007.67 0.8657
1007.68 0.8661
1007.69 0.8659
1007.70 0.8656
1007.71 0.8653
1007.72 0.8649
1007.73 0.8646
1007.74 0.8643
1007.75 0.8642
1007.76 0.8642
1007.77 0.8642
1007.78 0.8641
1007.79 0.8641
1007.80 0.8637
1007.81 0.8633
1007.82 0.8629
1007.83 0.8625
1007.84 0.8621
1007.85 0.8621
1007.86 0.8621
1007.87 0.8622
1007.88 0.8622
1007.89 0.8622
1007.90 0.8618
1007.91 0.8613
1007.92 0.8608
1007.93 0.8603
1007.94 0.8599
1007.95 0.8600
1007.96 0.8600
1007.97 0.8601
1007.98 0.8602
1007.99 0.8603
1008.00 0.8598
1008.01 0.8593
1008.02 0.8588
1008.03 0.8582
1008.04 0.8577
1008.05 0.8578
1008.06 0.8579
1008.07 0.8580
1008.08 0.8581
1008.09 0.8583
1008.10 0.8577
1008.11 0.8572
1008.12 0.8566
1008.13 0.8561
1008.14 0.8555
1008.15 0.8556
1008.16 0.8557
1008.17 0.8559
1008.18 0.8560
1008.19 0.8561
1008.20 0.8556
1008.21 0.8550
1008.22 0.8544
1008.23 0.8538
1008.24 0.8533
1008.25 0.8534
1008.26 0.8535
1008.27 0.8535
1008.28 0.8536
1008.29 0.8538
1008.30 0.8532
1008.31 0.8527
1008.32 0.8521
1008.33 0.8515
1008.34 0.8510
1008.35 0.8510
1008.36 0.8511
1008.37 0.8511
1008.38 0.8512
1008.39 0.8514
1008.40 0.8508
1008.41 0.8503
1008.42 0.8497
1008.43 0.8492
1008.44 0.8487
1008.45 0.8487
1008.46 0.8487
1008.47 0.8487
1008.48 0.8487
1008.49 0.8488
1008.50 0.8483
1008.51 0.8478
1008.52 0.8474
1008.53 0.8469
1008.54 0.8464
1008.55 0.8463
1008.56 0.8463
1008.57 0.8462
1008.58 0.8462
1008.59 0.8463
1008.60 0.8458
1008.61 0.8454
1008.62 0.8450
1008.63 0.8446
1008.64 0.8442
1008.65 0.8440
1008.66 0.8439
1008.67 0.8438
1008.68 0.8437
1008.69 0.8437
1008.70 0.8429
1008.71 0.8426
1008.72 0.8423
1008.73 0.8419
1008.74 0.8416
1008.75 0.8414
1008.76 0.8413
1008.77 0.8411
1008.78 0.8409
1008.79 0.8409
1008.80 0.8407
1008.81 0.8405
1008.82 0.8402
1008.83 0.8400
1008.84 0.8398
1008.85 0.8395
1008.86 0.8392
1008.87 0.8390
1008.88 0.8387
1008.89 0.8387
1008.90 0.8385
1008.91 0.8384
1008.92 0.8382
1008.93 0.8386
1008.94 0.8385
1008.95 0.8381
1008.96 0.8378
1008.97 0.8375
1008.98 0.8371
1008.99 0.8371
1009.00 0.8371
1009.01 0.8370
1009.02 0.8370
1009.03 0.8369
1009.04 0.8369
1009.05 0.8365
1009.06 0.8361
1009.07 0.8357
1009.08 0.8353
1009.09 0.8352
1009.10 0.8352
1009.11 0.8353
1009.12 0.8353
1009.13 0.8353
1009.14 0.8354
1009.15 0.8349
1009.16 0.8344
1009.17 0.8340
1009.18 0.8335
1009.19 0.8334
1009.20 0.8335
1009.21 0.8335
1009.22 0.8336
1009.23 0.8337
1009.24 0.8338
1009.25 0.8333
1009.26 0.8328
1009.27 0.8322
1009.28 0.8317
1009.29 0.8316
1009.30 0.8317
1009.31 0.8318
1009.32 0.8319
1009.33 0.8320
1009.34 0.8321
1009.35 0.8316
1009.36 0.8310
1009.37 0.8305
1009.38 0.8299
1009.39 0.8297
1009.40 0.8298
1009.41 0.8299
1009.42 0.8300
1009.43 0.8301
1009.44 0.8303
1009.45 0.8297
1009.46 0.8291
1009.47 0.8286
1009.48 0.8280
1009.49 0.8278
1009.50 0.8278
1009.51 0.8279
1009.52 0.8280
1009.53 0.8281
1009.54 0.8283
1009.55 0.8277
1009.56 0.8271
1009.57 0.8266
1009.58 0.8260
1009.59 0.8257
1009.60 0.8258
1009.61 0.8258
1009.62 0.8259
1009.63 0.8259
1009.64 0.8261
1009.65 0.8255
1009.66 0.8250
1009.67 0.8245
1009.68 0.8240
1009.69 0.8236
1009.70 0.8236
1009.71 0.8236
1009.72 0.8236
1009.73 0.8236
1009.74 0.8237
1009.75 0.8233
1009.76 0.8228
1009.77 0.8223
1009.78 0.8218
1009.79 0.8214
1009.80 0.8214
1009.81 0.8213
1009.82 0.8212
1009.83 0.8212
1009.84 0.8213
1009.85 0.8209
1009.86 0.8204
1009.87 0.8200
1009.88 0.8196
1009.89 0.8192
1009.90 0.8191
1009.91 0.8189
1009.92 0.8188
1009.93 0.8187
1009.94 0.8187
1009.95 0.8179
1009.96 0.8176
1009.97 0.8173
1009.98 0.8170
1009.99 0.8165
1010.00 0.8164
1010.01 0.8162
1010.02 0.8160
1010.03 0.8158
1010.04 0.8158
1010.05 0.8156
1010.06 0.8154
1010.07 0.8151
1010.08 0.8149
1010.09 0.8144
1010.10 0.8141
1010.11 0.8139
1010.12 0.8136
1010.13 0.8133
1010.14 0.8133
1010.15 0.8131
1010.16 0.8130
1010.17 0.8128
1010.18 0.8132
1010.19 0.8127
1010.20 0.8124
1010.21 0.8120
1010.22 0.8117
1010.23 0.8114
1010.24 0.8113
1010.25 0.8113
1010.26 0.8112
1010.27 0.8112
1010.28 0.8111
1010.29 0.8106
1010.30 0.8102
1010.31 0.8098
1010.32 0.8094
1010.33 0.8090
1010.34 0.8089
1010.35 0.8089
1010.36 0.8089
1010.37 0.8090
1010.38 0.8090
1010.39 0.8084
1010.40 0.8079
1010.41 0.8075
1010.42 0.8070
1010.43 0.8066
1010.44 0.8064
1010.45 0.8065
1010.46 0.8066
1010.47 0.8066
1010.48 0.8067
1010.49 0.8061
1010.50 0.8056
1010.51 0.8051
1010.52 0.8046
1010.53 0.8041
1010.54 0.8039
1010.55 0.8040
1010.56 0.8041
1010.57 0.8042
1010.58 0.8043
1010.59 0.8037
1010.60 0.8031
1010.61 0.8026
1010.62 0.8021
1010.63 0.8015
1010.64 0.8013
1010.65 0.8014
1010.66 0.8015
1010.67 0.8016
1010.68 0.8017
1010.69 0.8011
1010.70 0.8005
1010.71 0.8000
1010.72 0.7994
1010.73 0.7989
1010.74 0.7986
1010.75 0.7987
1010.76 0.7988
1010.77 0.7988
1010.78 0.7989
1010.79 0.7983
1010.80 0.7978
1010.81 0.7972
1010.82 0.7967
1010.83 0.7961
1010.84 0.7959
1010.85 0.7959
1010.86 0.7959
1010.87 0.7960
1010.88 0.7960
1010.89 0.7955
1010.90 0.7950
1010.91 0.7944
1010.92 0.7939
1010.93 0.7934
1010.94 0.7931
1010.95 0.7931
1010.96 0.7930
1010.97 0.7930
1010.98 0.7930
1010.99 0.7925
1011.00 0.7921
1011.01 0.7916
1011.02 0.7911
1011.03 0.7907
1011.04 0.7903
1011.05 0.7902
1011.06 0.7902
1011.07 0.7901
1011.08 0.7900
1011.09 0.7896
1011.10 0.7892
1011.11 0.7888
1011.12 0.7884
1011.13 0.7880
1011.14 0.7876
1011.15 0.7874
1011.16 0.7873
1011.17 0.7872
1011.18 0.7870
1011.19 0.7867
1011.20 0.7859
1011.21 0.7856
1011.22 0.7853
1011.23 0.7850
1011.24 0.7846
1011.25 0.7844
1011.26 0.7842
1011.27 0.7840
1011.28 0.7838
1011.29 0.7836
1011.30 0.7834
1011.31 0.7831
1011.32 0.7829
1011.33 0.7827
1011.34 0.7822
1011.35 0.7819
1011.36 0.7816
1011.37 0.7814
1011.38 0.7811
1011.39 0.7810
1011.40 0.7808
1011.41 0.7807
1011.42 0.7805
1011.43 0.7808
1011.44 0.7803
1011.45 0.7800
1011.46 0.7797
1011.47 0.7794
1011.48 0.7790
1011.49 0.7790
1011.50 0.7789
1011.51 0.7789
1011.52 0.7788
1011.53 0.7788
1011.54 0.7782
1011.55 0.7778
1011.56 0.7775
1011.57 0.7771
1011.58 0.7767
1011.59 0.7767
1011.60 0.7767
1011.61 0.7767
1011.62 0.7767
1011.63 0.7767
1011.64 0.7762
1011.65 0.7757
1011.66 0.7753
1011.67 0.7748
1011.68 0.7744
1011.69 0.7744
1011.70 0.7745
1011.71 0.7745
1011.72 0.7746
1011.73 0.7747
1011.74 0.7741
1011.75 0.7736
1011.76 0.7731
1011.77 0.7726
1011.78 0.7721
1011.79 0.7722
1011.80 0.7723
1011.81 0.7723
1011.82 0.7724
1011.83 0.7725
1011.84 0.7719
1011.85 0.7714
1011.86 0.7709
1011.87 0.7703
1011.88 0.7698
1011.89 0.7699
1011.90 0.7700
1011.91 0.7701
1011.92 0.7701
1011.93 0.7702
1011.94 0.7696
1011.95 0.7691
1011.96 0.7685
1011.97 0.7680
1011.98 0.7675
1011.99 0.7675
1012.00 0.7676
1012.01 0.7677
1012.02 0.7677
1012.03 0.7678
1012.04 0.7672
1012.05 0.7667
1012.06 0.7662
1012.07 0.7656
1012.08 0.7651
1012.09 0.7651
1012.10 0.7652
1012.11 0.7652
1012.12 0.7652
1012.13 0.7653
1012.14 0.7647
1012.15 0.7642
1012.16 0.7637
1012.17 0.7632
1012.18 0.7627
1012.19 0.7627
1012.20 0.7627
1012.21 0.7627
1012.22 0.7626
1012.23 0.7626
1012.24 0.7622
1012.25 0.7617
1012.26 0.7612
1012.27 0.7608
1012.28 0.7603
1012.29 0.7602
1012.30 0.7602
1012.31 0.7601
1012.32 0.7600
1012.33 0.7600
1012.34 0.7595
1012.35 0.7591
1012.36 0.7587
1012.37 0.7584
1012.38 0.7580
1012.39 0.7578
1012.40 0.7577
1012.41 0.7575
1012.42 0.7574
1012.43 0.7573
1012.44 0.7569
1012.45 0.7562
1012.46 0.7559
1012.47 0.7556
1012.48 0.7553
1012.49 0.7551
1012.50 0.7549
1012.51 0.7547
1012.52 0.7545
1012.53 0.7543
1012.54 0.7541
1012.55 0.7539
1012.56 0.7536
1012.57 0.7534
1012.58 0.7532
1012.59 0.7529
1012.60 0.7527
1012.61 0.7524
1012.62 0.7521
1012.63 0.7519
1012.64 0.7517
1012.65 0.7516
1012.66 0.7514
1012.67 0.7512
1012.68 0.7516
1012.69 0.7512
1012.70 0.7509
1012.71 0.7506
1012.72 0.7503
1012.73 0.7500
1012.74 0.7499
1012.75 0.7498
1012.76 0.7498
1012.77 0.7497
1012.78 0.7497
1012.79 0.7493
1012.80 0.7489
1012.81 0.7485
1012.82 0.7481
1012.83 0.7478
1012.84 0.7478
1012.85 0.7478
1012.86 0.7478
1012.87 0.7478
1012.88 0.7478
1012.89 0.7473
1012.90 0.7469
1012.91 0.7464
1012.92 0.7460
1012.93 0.7456
1012.94 0.7456
1012.95 0.7457
1012.96 0.7457
1012.97 0.7458
1012.98 0.7458
1012.99 0.7453
1013.00 0.7448
1013.01 0.7444
1013.02 0.7439
1013.03 0.7434
1013.04 0.7435
1013.05 0.7435
1013.06 0.7436
1013.07 0.7437
1013.08 0.7437
1013.09 0.7432
1013.10 0.7427
1013.11 0.7422
1013.12 0.7417
1013.13 0.7412
1013.14 0.7412
1013.15 0.7413
1013.16 0.7414
1013.17 0.7415
1013.18 0.7415
1013.19 0.7410
1013.20 0.7405
1013.21 0.7400
1013.22 0.7394
1013.23 0.7389
1013.24 0.7390
1013.25 0.7390
1013.26 0.7391
1013.27 0.7391
1013.28 0.7392
1013.29 0.7387
1013.30 0.7381
1013.31 0.7376
1013.32 0.7371
1013.33 0.7366
1013.34 0.7366
1013.35 0.7366
1013.36 0.7366
1013.37 0.7367
1013.38 0.7367
1013.39 0.7362
1013.40 0.7357
1013.41 0.7352
1013.42 0.7347
1013.43 0.7342
1013.44 0.7342
1013.45 0.7342
1013.46 0.7342
1013.47 0.7341
1013.48 0.7341
1013.49 0.7337
1013.50 0.7332
1013.51 0.7328
1013.52 0.7323
1013.53 0.7319
1013.54 0.7318
1013.55 0.7317
1013.56 0.7316
1013.57 0.7316
1013.58 0.7315
1013.59 0.7311
1013.60 0.7307
1013.61 0.7303
1013.62 0.7299
1013.63 0.7295
1013.64 0.7294
1013.65 0.7293
1013.66 0.7291
1013.67 0.7290
1013.68 0.7288
1013.69 0.7281
1013.70 0.7278
1013.71 0.7275
1013.72 0.7272
1013.73 0.7269
1013.74 0.7267
1013.75 0.7265
1013.76 0.7263
1013.77 0.7261
1013.78 0.7259
1013.79 0.7257
1013.80 0.7255
1013.81 0.7253
1013.82 0.7250
1013.83 0.7248
1013.84 0.7245
1013.85 0.7243
1013.86 0.7240
1013.87 0.7238
1013.88 0.7235
1013.89 0.7233
1013.90 0.7232
1013.91 0.7230
1013.92 0.7233
1013.93 0.7232
1013.94 0.7229
1013.95 0.7226
1013.96 0.7222
1013.97 0.7219
1013.98 0.7216
1013.99 0.7216
1014.00 0.7215
1014.01 0.7214
1014.02 0.7214
1014.03 0.7213
1014.04 0.7209
1014.05 0.7205
1014.06 0.7202
1014.07 0.7198
1014.08 0.7194
1014.09 0.7194
1014.10 0.7194
1014.11 0.7194
1014.12 0.7194
1014.13 0.7194
1014.14 0.7190
1014.15 0.7186
1014.16 0.7181
1014.17 0.7177
1014.18 0.7173
1014.19 0.7173
1014.20 0.7173
1014.21 0.7174
1014.22 0.7174
1014.23 0.7175
1014.24 0.7170
1014.25 0.7165
1014.26 0.7161
1014.27 0.7156
1014.28 0.7151
1014.29 0.7152
1014.30 0.7152
1014.31 0.7153
1014.32 0.7153
1014.33 0.7154
1014.34 0.7149
1014.35 0.7144
1014.36 0.7139
1014.37 0.7134
1014.38 0.7129
1014.39 0.7130
1014.40 0.7131
1014.41 0.7131
1014.42 0.7132
1014.43 0.7133
1014.44 0.7128
1014.45 0.7123
1014.46 0.7117
1014.47 0.7112
1014.48 0.7107
1014.49 0.7108
1014.50 0.7108
1014.51 0.7109
1014.52 0.7109
1014.53 0.7110
1014.54 0.7105
1014.55 0.7100
1014.56 0.7095
1014.57 0.7090
1014.58 0.7085
1014.59 0.7085
1014.60 0.7085
1014.61 0.7085
1014.62 0.7085
1014.63 0.7086
1014.64 0.7081
1014.65 0.7077
1014.66 0.7072
1014.67 0.7067
1014.68 0.7062
1014.69 0.7062
1014.70 0.7061
1014.71 0.7061
1014.72 0.7061
1014.73 0.7062
1014.74 0.7057
1014.75 0.7053
1014.76 0.7048
1014.77 0.7044
1014.78 0.7040
1014.79 0.7039
1014.80 0.7038
1014.81 0.7037
1014.82 0.7036
1014.83 0.7037
1014.84 0.7033
1014.85 0.7029
1014.86 0.7025
1014.87 0.7022
1014.88 0.7018
1014.89 0.7016
1014.90 0.7015
1014.91 0.7013
1014.92 0.7012
1014.93 0.7012
1014.94 0.7005
1014.95 0.7002
1014.96 0.6999
1014.97 0.6996
1014.98 0.6993
1014.99 0.6991
1015.00 0.6989
1015.01 0.6987
1015.02 0.6986
1015.03 0.6986
1015.04 0.6983
1015.05 0.6981
1015.06 0.6979
1015.07 0.6976
1015.08 0.6974
1015.09 0.6972
1015.10 0.6969
1015.11 0.6966
1015.12 0.6964
1015.13 0.6963
1015.14 0.6962
1015.15 0.6960
1015.16 0.6959
1015.17 0.6961
1015.18 0.6960
1015.19 0.6957
1015.20 0.6954
1015.21 0.6951
1015.22 0.6948
1015.23 0.6947
1015.24 0.6946
1015.25 0.6945
1015.26 0.6945
1015.27 0.6944
1015.28 0.6943
1015.29 0.6940
1015.30 0.6936
1015.31 0.6932
1015.32 0.6929
1015.33 0.6928
1015.34 0.6927
1015.35 0.6927
1015.36 0.6927
1015.37 0.6927
1015.38 0.6927
1015.39 0.6923
1015.40 0.6919
1015.41 0.6914
1015.42 0.6910
1015.43 0.6909
1015.44 0.6909
1015.45 0.6909
1015.46 0.6910
1015.47 0.6910
1015.48 0.6910
1015.49 0.6906
1015.50 0.6901
1015.51 0.6897
1015.52 0.6892
1015.53 0.6890
1015.54 0.6891
1015.55 0.6891
1015.56 0.6892
1015.57 0.6892
1015.58 0.6893
1015.59 0.6888
1015.60 0.6883
1015.61 0.6878
1015.62 0.6873
1015.63 0.6871
1015.64 0.6872
1015.65 0.6872
1015.66 0.6873
1015.67 0.6873
1015.68 0.6874
1015.69 0.6869
1015.70 0.6864
1015.71 0.6859
1015.72 0.6854
1015.73 0.6852
1015.74 0.6852
1015.75 0.6852
1015.76 0.6853
1015.77 0.6853
1015.78 0.6854
1015.79 0.6849
1015.80 0.6844
1015.81 0.6839
1015.82 0.6834
1015.83 0.6831
1015.84 0.6831
1015.85 0.6831
1015.86 0.6831
1015.87 0.6832
1015.88 0.6832
1015.89 0.6828
1015.90 0.6823
1015.91 0.6818
1015.92 0.6813
1015.93 0.6810
1015.94 0.6810
1015.95 0.6809
1015.96 0.6809
1015.97 0.6809
1015.98 0.6809
1015.99 0.6805
1016.00 0.6801
1016.01 0.6796
1016.02 0.6792
1016.03 0.6789
1016.04 0.6788
1016.05 0.6787
1016.06 0.6786
1016.07 0.6785
1016.08 0.6785
1016.09 0.6782
1016.10 0.6778
1016.11 0.6774
1016.12 0.6770
1016.13 0.6767
1016.14 0.6765
1016.15 0.6764
1016.16 0.6762
1016.17 0.6761
1016.18 0.6761
1016.19 0.6754
1016.20 0.6751
1016.21 0.6748
1016.22 0.6745
1016.23 0.6741
1016.24 0.6739
1016.25 0.6737
1016.26 0.6735
1016.27 0.6733
1016.28 0.6733
1016.29 0.6731
1016.30 0.6729
1016.31 0.6726
1016.32 0.6724
1016.33 0.6720
1016.34 0.6717
1016.35 0.6714
1016.36 0.6712
1016.37 0.6709
1016.38 0.6709
1016.39 0.6707
1016.40 0.6706
1016.41 0.6704
1016.42 0.6706
1016.43 0.6702
1016.44 0.6699
1016.45 0.6696
1016.46 0.6693
1016.47 0.6690
1016.48 0.6689
1016.49 0.6688
1016.50 0.6687
1016.51 0.6687
1016.52 0.6686
1016.53 0.6681
1016.54 0.6677
1016.55 0.6674
1016.56 0.6670
1016.57 0.6666
1016.58 0.6665
1016.59 0.6665
1016.60 0.6665
1016.61 0.6665
1016.62 0.6664
1016.63 0.6659
1016.64 0.6655
1016.65 0.6651
1016.66 0.6647
1016.67 0.6643
1016.68 0.6641
1016.69 0.6642
1016.70 0.6642
1016.71 0.6642
1016.72 0.6642
1016.73 0.6637
1016.74 0.6632
1016.75 0.6628
1016.76 0.6623
1016.77 0.6619
1016.78 0.6617
1016.79 0.6617
1016.80 0.6618
1016.81 0.6618
1016.82 0.6618
1016.83 0.6613
1016.84 0.6608
1016.85 0.6603
1016.86 0.6599
1016.87 0.6594
1016.88 0.6592
1016.89 0.6592
1016.90 0.6593
1016.91 0.6593
1016.92 0.6593
1016.93 0.6588
1016.94 0.6583
1016.95 0.6578
1016.96 0.6573
1016.97 0.6568
1016.98 0.6566
1016.99 0.6566
1017.00 0.6566
1017.01 0.6567
1017.02 0.6567
1017.03 0.6562
1017.04 0.6557
1017.05 0.6552
1017.06 0.6547
1017.07 0.6542
1017.08 0.6540
1017.09 0.6540
1017.10 0.6539
1017.11 0.6539
1017.12 0.6539
1017.13 0.6535
1017.14 0.6530
1017.15 0.6525
1017.16 0.6521
1017.17 0.6516
1017.18 0.6513
1017.19 0.6513
1017.20 0.6512
1017.21 0.6512
1017.22 0.6511
1017.23 0.6507
1017.24 0.6503
1017.25 0.6498
1017.26 0.6494
1017.27 0.6490
1017.28 0.6486
1017.29 0.6486
1017.30 0.6485
1017.31 0.6484
1017.32 0.6483
1017.33 0.6479
1017.34 0.6475
1017.35 0.6472
1017.36 0.6468
1017.37 0.6464
1017.38 0.6460
1017.39 0.6459
1017.40 0.6458
1017.41 0.6456
1017.42 0.6455
1017.43 0.6451
1017.44 0.6445
1017.45 0.6442
1017.46 0.6439
1017.47 0.6436
1017.48 0.6432
1017.49 0.6430
1017.50 0.6428
1017.51 0.6426
1017.52 0.6424
1017.53 0.6422
1017.54 0.6420
1017.55 0.6418
1017.56 0.6415
1017.57 0.6413
1017.58 0.6409
1017.59 0.6406
1017.60 0.6404
1017.61 0.6401
1017.62 0.6399
1017.63 0.6397
1017.64 0.6395
1017.65 0.6394
1017.66 0.6392
1017.67 0.6394
1017.68 0.6390
1017.69 0.6387
1017.70 0.6384
1017.71 0.6381
1017.72 0.6378
1017.73 0.6377
1017.74 0.6376
1017.75 0.6375
1017.76 0.6375
1017.77 0.6374
1017.78 0.6369
1017.79 0.6365
1017.80 0.6362
1017.81 0.6358
1017.82 0.6355
1017.83 0.6355
1017.84 0.6354
1017.85 0.6354
1017.86 0.6354
1017.87 0.6353
1017.88 0.6348
1017.89 0.6344
1017.90 0.6340
1017.91 0.6336
1017.92 0.6332
1017.93 0.6332
1017.94 0.6332
1017.95 0.6332
1017.96 0.6333
1017.97 0.6333
1017.98 0.6327
1017.99 0.6323
1018.00 0.6319
1018.01 0.6314
1018.02 0.6310
1018.03 0.6310
1018.04 0.6310
1018.05 0.6311
1018.06 0.6311
1018.07 0.6311
1018.08 0.6306
1018.09 0.6301
1018.10 0.6297
1018.11 0.6292
1018.12 0.6287
1018.13 0.6288
1018.14 0.6288
1018.15 0.6288
1018.16 0.6289
1018.17 0.6289
1018.18 0.6284
1018.19 0.6279
1018.20 0.6274
1018.21 0.6269
1018.22 0.6264
1018.23 0.6265
1018.24 0.6265
1018.25 0.6265
1018.26 0.6265
1018.27 0.6265
1018.28 0.6260
1018.29 0.6256
1018.30 0.6251
1018.31 0.6246
1018.32 0.6241
1018.33 0.6241
1018.34 0.6241
1018.35 0.6241
1018.36 0.6241
1018.37 0.6241
1018.38 0.6236
1018.39 0.6232
1018.40 0.6227
1018.41 0.6222
1018.42 0.6218
1018.43 0.6217
1018.44 0.6217
1018.45 0.6217
1018.46 0.6216
1018.47 0.6216
1018.48 0.6211
1018.49 0.6207
1018.50 0.6203
1018.51 0.6199
1018.52 0.6195
1018.53 0.6194
1018.54 0.6193
1018.55 0.6192
1018.56 0.6191
1018.57 0.6190
1018.58 0.6186
1018.59 0.6183
1018.60 0.6179
1018.61 0.6175
1018.62 0.6172
1018.63 0.6170
1018.64 0.6169
1018.65 0.6167
1018.66 0.6166
1018.67 0.6164
1018.68 0.6161
1018.69 0.6155
1018.70 0.6152
1018.71 0.6149
1018.72 0.6146
1018.73 0.6144
1018.74 0.6142
1018.75 0.6140
1018.76 0.6138
1018.77 0.6136
1018.78 0.6134
1018.79 0.6132
1018.80 0.6130
1018.81 0.6128
1018.82 0.6125
1018.83 0.6123
1018.84 0.6120
1018.85 0.6118
1018.86 0.6115
1018.87 0.6113
1018.88 0.6111
1018.89 0.6109
1018.90 0.6108
1018.91 0.6106
1018.92 0.6108
1018.93 0.6105
1018.94 0.6102
1018.95 0.6099
1018.96 0.6096
1018.97 0.6093
1018.98 0.6092
1018.99 0.6092
1019.00 0.6091
1019.01 0.6090
1019.02 0.6089
1019.03 0.6085
1019.04 0.6082
1019.05 0.6078
1019.06 0.6075
1019.07 0.6071
1019.08 0.6071
1019.09 0.6071
1019.10 0.6070
1019.11 0.6070
1019.12 0.6070
1019.13 0.6066
1019.14 0.6062
1019.15 0.6058
1019.16 0.6054
1019.17 0.6050
1019.18 0.6050
1019.19 0.6050
1019.20 0.6050
1019.21 0.6050
1019.22 0.6050
1019.23 0.6045
1019.24 0.6041
1019.25 0.6037
1019.26 0.6033
1019.27 0.6028
1019.28 0.6028
1019.29 0.6029
1019.30 0.6029
1019.31 0.6029
1019.32 0.6029
1019.33 0.6025
1019.34 0.6020
1019.35 0.6015
1019.36 0.6011
1019.37 0.6006
1019.38 0.6007
1019.39 0.6007
1019.40 0.6007
1019.41 0.6007
1019.42 0.6007
1019.43 0.6003
1019.44 0.5998
1019.45 0.5993
1019.46 0.5989
1019.47 0.5984
1019.48 0.5984
1019.49 0.5984
1019.50 0.5984
1019.51 0.5984
1019.52 0.5984
1019.53 0.5980
1019.54 0.5975
1019.55 0.5971
1019.56 0.5966
1019.57 0.5961
1019.58 0.5961
1019.59 0.5961
1019.60 0.5961
1019.61 0.5961
1019.62 0.5960
1019.63 0.5956
1019.64 0.5951
1019.65 0.5947
1019.66 0.5943
1019.67 0.5938
1019.68 0.5938
1019.69 0.5937
1019.70 0.5937
1019.71 0.5936
1019.72 0.5935
1019.73 0.5931
1019.74 0.5927
1019.75 0.5923
1019.76 0.5919
1019.77 0.5915
1019.78 0.5914
1019.79 0.5913
1019.80 0.5912
1019.81 0.5911
1019.82 0.5910
1019.83 0.5907
1019.84 0.5903
1019.85 0.5900
1019.86 0.5896
1019.87 0.5892
1019.88 0.5891
1019.89 0.5889
1019.90 0.5888
1019.91 0.5886
1019.92 0.5885
1019.93 0.5878
1019.94 0.5876
1019.95 0.5873
1019.96 0.5870
1019.97 0.5867
1019.98 0.5865
1019.99 0.5863
1020.00 0.5861
1020.01 0.5860
1020.02 0.5858
1020.03 0.5855
1020.04 0.5853
1020.05 0.5851
1020.06 0.5849
1020.07 0.5847
1020.08 0.5844
1020.09 0.5841
1020.10 0.5839
1020.11 0.5836
1020.12 0.5834
1020.13 0.5832
1020.14 0.5831
1020.15 0.5829
1020.16 0.5831
1020.17 0.5829
1020.18 0.5826
1020.19 0.5824
1020.20 0.5821
1020.21 0.5818
1020.22 0.5815
1020.23 0.5814
1020.24 0.5813
1020.25 0.5812
1020.26 0.5811
1020.27 0.5810
1020.28 0.5807
1020.29 0.5803
1020.30 0.5800
1020.31 0.5796
1020.32 0.5793
1020.33 0.5793
1020.34 0.5792
1020.35 0.5792
1020.36 0.5791
1020.37 0.5791
1020.38 0.5787
1020.39 0.5783
1020.40 0.5779
1020.41 0.5776
1020.42 0.5772
1020.43 0.5772
1020.44 0.5771
1020.45 0.5771
1020.46 0.5771
1020.47 0.5771
1020.48 0.5767
1020.49 0.5763
1020.50 0.5759
1020.51 0.5755
1020.52 0.5750
1020.53 0.5750
1020.54 0.5750
1020.55 0.5751
1020.56 0.5751
1020.57 0.5751
1020.58 0.5747
1020.59 0.5742
1020.60 0.5738
1020.61 0.5733
1020.62 0.5729
1020.63 0.5729
1020.64 0.5729
1020.65 0.5729
1020.66 0.5729
1020.67 0.5730
1020.68 0.5725
1020.69 0.5721
1020.70 0.5716
1020.71 0.5711
1020.72 0.5707
1020.73 0.5707
1020.74 0.5707
1020.75 0.5707
1020.76 0.5707
1020.77 0.5707
1020.78 0.5703
1020.79 0.5698
1020.80 0.5694
1020.81 0.5689
1020.82 0.5685
1020.83 0.5685
1020.84 0.5684
1020.85 0.5684
1020.86 0.5684
1020.87 0.5684
1020.88 0.5680
1020.89 0.5675
1020.90 0.5671
1020.91 0.5667
1020.92 0.5663
1020.93 0.5662
1020.94 0.5661
1020.95 0.5661
1020.96 0.5660
1020.97 0.5660
1020.98 0.5656
1020.99 0.5652
1021.00 0.5648
1021.01 0.5644
1021.02 0.5640
1021.03 0.5639
1021.04 0.5638
1021.05 0.5637
1021.06 0.5636
1021.07 0.5636
1021.08 0.5633
1021.09 0.5629
1021.10 0.5626
1021.11 0.5622
1021.12 0.5619
1021.13 0.5617
1021.14 0.5616
1021.15 0.5614
1021.16 0.5613
1021.17 0.5612
1021.18 0.5606
1021.19 0.5603
1021.20 0.5601
1021.21 0.5598
1021.22 0.5595
1021.23 0.5593
1021.24 0.5591
1021.25 0.5589
1021.26 0.5587
1021.27 0.5587
1021.28 0.5585
1021.29 0.5582
1021.30 0.5580
1021.31 0.5578
1021.32 0.5576
1021.33 0.5573
1021.34 0.5571
1021.35 0.5568
1021.36 0.5566
1021.37 0.5565
1021.38 0.5563
1021.39 0.5562
1021.40 0.5560
1021.41 0.5562
1021.42 0.5560
1021.43 0.5557
1021.44 0.5554
1021.45 0.5552
1021.46 0.5549
1021.47 0.5548
1021.48 0.5547
1021.49 0.5546
1021.50 0.5545
1021.51 0.5544
1021.52 0.5543
1021.53 0.5540
1021.54 0.5536
1021.55 0.5533
1021.56 0.5529
1021.57 0.5528
1021.58 0.5528
1021.59 0.5527
1021.60 0.5527
1021.61 0.5526
1021.62 0.5526
1021.63 0.5522
1021.64 0.5518
1021.65 0.5514
1021.66 0.5511
1021.67 0.5509
1021.68 0.5509
1021.69 0.5509
1021.70 0.5508
1021.71 0.5508
1021.72 0.5508
1021.73 0.5504
1021.74 0.5500
1021.75 0.5496
1021.76 0.5492
1021.77 0.5490
1021.78 0.5490
1021.79 0.5490
1021.80 0.5490
1021.81 0.5490
1021.82 0.5490
1021.83 0.5486
1021.84 0.5481
1021.85 0.5477
1021.86 0.5473
1021.87 0.5471
1021.88 0.5471
1021.89 0.5471
1021.90 0.5471
1021.91 0.5471
1021.92 0.5471
1021.93 0.5467
1021.94 0.5462
1021.95 0.5458
1021.96 0.5453
1021.97 0.5451
1021.98 0.5451
1021.99 0.5451
1022.00 0.5450
1022.01 0.5450
1022.02 0.5451
1022.03 0.5446
1022.04 0.5442
1022.05 0.5438
1022.06 0.5433
1022.07 0.5430
1022.08 0.5430
1022.09 0.5430
1022.10 0.5429
1022.11 0.5429
1022.12 0.5429
1022.13 0.5425
1022.14 0.5421
1022.15 0.5417
1022.16 0.5412
1022.17 0.5409
1022.18 0.5409
1022.19 0.5408
1022.20 0.5407
1022.21 0.5407
1022.22 0.5407
1022.23 0.5403
1022.24 0.5399
1022.25 0.5395
1022.26 0.5391
1022.27 0.5388
1022.28 0.5387
1022.29 0.5386
1022.30 0.5385
1022.31 0.5384
1022.32 0.5383
1022.33 0.5380
1022.34 0.5377
1022.35 0.5373
1022.36 0.5370
1022.37 0.5366
1022.38 0.5365
1022.39 0.5363
1022.40 0.5362
1022.41 0.5360
1022.42 0.5360
1022.43 0.5354
1022.44 0.5351
1022.45 0.5348
1022.46 0.5345
1022.47 0.5342
1022.48 0.5340
1022.49 0.5338
1022.50 0.5336
1022.51 0.5334
1022.52 0.5333
1022.53 0.5331
1022.54 0.5329
1022.55 0.5327
1022.56 0.5325
1022.57 0.5321
1022.58 0.5318
1022.59 0.5316
1022.60 0.5313
1022.61 0.5311
1022.62 0.5310
1022.63 0.5308
1022.64 0.5306
1022.65 0.5305
1022.66 0.5306
1022.67 0.5302
1022.68 0.5299
1022.69 0.5296
1022.70 0.5294
1022.71 0.5291
1022.72 0.5290
1022.73 0.5289
1022.74 0.5288
1022.75 0.5287
1022.76 0.5285
1022.77 0.5281
1022.78 0.5278
1022.79 0.5275
1022.80 0.5271
1022.81 0.5268
1022.82 0.5267
1022.83 0.5266
1022.84 0.5266
1022.85 0.5265
1022.86 0.5264
1022.87 0.5260
1022.88 0.5256
1022.89 0.5252
1022.90 0.5249
1022.91 0.5245
1022.92 0.5244
1022.93 0.5243
1022.94 0.5243
1022.95 0.5243
1022.96 0.5242
1022.97 0.5238
1022.98 0.5234
1022.99 0.5230
1023.00 0.5226
1023.01 0.5222
1023.02 0.5220
1023.03 0.5220
1023.04 0.5220
1023.05 0.5219
1023.06 0.5219
1023.07 0.5215
1023.08 0.5210
1023.09 0.5206
1023.10 0.5202
1023.11 0.5198
1023.12 0.5196
1023.13 0.5195
1023.14 0.5195
1023.15 0.5195
1023.16 0.5195
1023.17 0.5190
1023.18 0.5186
1023.19 0.5182
1023.20 0.5178
1023.21 0.5173
1023.22 0.5171
1023.23 0.5171
1023.24 0.5170
1023.25 0.5170
1023.26 0.5170
1023.27 0.5165
1023.28 0.5161
1023.29 0.5157
1023.30 0.5153
1023.31 0.5148
1023.32 0.5146
1023.33 0.5145
1023.34 0.5145
1023.35 0.5144
1023.36 0.5144
1023.37 0.5140
1023.38 0.5135
1023.39 0.5131
1023.40 0.5127
1023.41 0.5123
1023.42 0.5120
1023.43 0.5120
1023.44 0.5119
1023.45 0.5118
1023.46 0.5117
1023.47 0.5113
1023.48 0.5110
1023.49 0.5106
1023.50 0.5102
1023.51 0.5098
1023.52 0.5095
1023.53 0.5094
1023.54 0.5093
1023.55 0.5092
1023.56 0.5090
1023.57 0.5087
1023.58 0.5084
1023.59 0.5080
1023.60 0.5077
1023.61 0.5074
1023.62 0.5070
1023.63 0.5069
1023.64 0.5067
1023.65 0.5066
1023.66 0.5064
1023.67 0.5061
1023.68 0.5055
1023.69 0.5053
1023.70 0.5050
1023.71 0.5047
1023.72 0.5044
1023.73 0.5042
1023.74 0.5040
1023.75 0.5038
1023.76 0.5036
1023.77 0.5034
1023.78 0.5031
1023.79 0.5029
1023.80 0.5027
1023.81 0.5025
1023.82 0.5021
1023.83 0.5019
1023.84 0.5016
1023.85 0.5014
1023.86 0.5011
1023.87 0.5009
1023.88 0.5008
1023.89 0.5006
1023.90 0.5004
1023.91 0.5006
1023.92 0.5002
1023.93 0.4999
1023.94 0.4996
1023.95 0.4993
1023.96 0.4990
1023.97 0.4989
1023.98 0.4988
1023.99 0.4987
1024.00 0.4986
1024.01 0.4985
1024.02 0.4981
1024.03 0.4978
1024.04 0.4974
1024.05 0.4971
1024.06 0.4968
1024.07 0.4967
1024.08 0.4967
1024.09 0.4966
1024.10 0.4965
1024.11 0.4964
1024.12 0.4960
1024.13 0.4957
1024.14 0.4953
1024.15 0.4949
1024.16 0.4946
1024.17 0.4945
1024.18 0.4945
1024.19 0.4945
1024.20 0.4944
1024.21 0.4944
1024.22 0.4939
1024.23 0.4935
1024.24 0.4932
1024.25 0.4928
1024.26 0.4924
1024.27 0.4924
1024.28 0.4923
1024.29 0.4923
1024.30 0.4923
1024.31 0.4923
1024.32 0.4918
1024.33 0.4914
1024.34 0.4910
1024.35 0.4906
1024.36 0.4902
1024.37 0.4901
1024.38 0.4901
1024.39 0.4901
1024.40 0.4901
1024.41 0.4901
1024.42 0.4896
1024.43 0.4892
1024.44 0.4888
1024.45 0.4884
1024.46 0.4879
1024.47 0.4879
1024.48 0.4879
1024.49 0.4878
1024.50 0.4878
1024.51 0.4878
1024.52 0.4873
1024.53 0.4869
1024.54 0.4865
1024.55 0.4861
1024.56 0.4857
1024.57 0.4856
1024.58 0.4856
1024.59 0.4855
1024.60 0.4855
1024.61 0.4854
1024.62 0.4850
1024.63 0.4846
1024.64 0.4842
1024.65 0.4838
1024.66 0.4834
1024.67 0.4833
1024.68 0.4832
1024.69 0.4831
1024.70 0.4831
1024.71 0.4830
1024.72 0.4826
1024.73 0.4822
1024.74 0.4819
1024.75 0.4815
1024.76 0.4811
1024.77 0.4810
1024.78 0.4809
1024.79 0.4808
1024.80 0.4807
1024.81 0.4805
1024.82 0.4802
1024.83 0.4799
1024.84 0.4795
1024.85 0.4792
1024.86 0.4789
1024.87 0.4787
1024.88 0.4786
1024.89 0.4784
1024.90 0.4782
1024.91 0.4781
1024.92 0.4778
1024.93 0.4772
1024.94 0.4770
1024.95 0.4767
1024.96 0.4764
1024.97 0.4762
1024.98 0.4760
1024.99 0.4758
1025.00 0.4757
1025.01 0.4755
1025.02 0.4752
1025.03 0.4750
1025.04 0.4748
1025.05 0.4746
1025.06 0.4744
1025.07 0.4741
1025.08 0.4739
1025.09 0.4736
1025.10 0.4734
1025.11 0.4731
1025.12 0.4730
1025.13 0.4728
1025.14 0.4726
1025.15 0.4727
1025.16 0.4726
1025.17 0.4723
1025.18 0.4720
1025.19 0.4718
1025.20 0.4715
1025.21 0.4712
1025.22 0.4711
1025.23 0.4710
1025.24 0.4709
1025.25 0.4707
1025.26 0.4706
1025.27 0.4703
1025.28 0.4700
1025.29 0.4697
1025.30 0.4694
1025.31 0.4691
1025.32 0.4690
1025.33 0.4689
1025.34 0.4688
1025.35 0.4688
1025.36 0.4687
1025.37 0.4683
1025.38 0.4680
1025.39 0.4676
1025.40 0.4673
1025.41 0.4669
1025.42 0.4669
1025.43 0.4668
1025.44 0.4668
1025.45 0.4667
1025.46 0.4667
1025.47 0.4663
1025.48 0.4660
1025.49 0.4656
1025.50 0.4652
1025.51 0.4648
1025.52 0.4648
1025.53 0.4647
1025.54 0.4647
1025.55 0.4647
1025.56 0.4647
1025.57 0.4643
1025.58 0.4639
1025.59 0.4635
1025.60 0.4631
1025.61 0.4627
1025.62 0.4626
1025.63 0.4626
1025.64 0.4626
1025.65 0.4626
1025.66 0.4626
1025.67 0.4621
1025.68 0.4617
1025.69 0.4613
1025.70 0.4609
1025.71 0.4605
1025.72 0.4605
1025.73 0.4604
1025.74 0.4604
1025.75 0.4603
1025.76 0.4603
1025.77 0.4599
1025.78 0.4595
1025.79 0.4591
1025.80 0.4587
1025.81 0.4583
1025.82 0.4583
1025.83 0.4582
1025.84 0.4581
1025.85 0.4581
1025.86 0.4581
1025.87 0.4577
1025.88 0.4573
1025.89 0.4569
1025.90 0.4565
1025.91 0.4561
1025.92 0.4561
1025.93 0.4560
1025.94 0.4559
1025.95 0.4558
1025.96 0.4558
1025.97 0.4554
1025.98 0.4550
1025.99 0.4547
1026.00 0.4543
1026.01 0.4540
1026.02 0.4538
1026.03 0.4537
1026.04 0.4536
1026.05 0.4535
1026.06 0.4534
1026.07 0.4531
1026.08 0.4528
1026.09 0.4525
1026.10 0.4521
1026.11 0.4518
1026.12 0.4517
1026.13 0.4515
1026.14 0.4513
1026.15 0.4512
1026.16 0.4511
1026.17 0.4506
1026.18 0.4503
1026.19 0.4500
1026.20 0.4498
1026.21 0.4495
1026.22 0.4493
1026.23 0.4491
1026.24 0.4489
1026.25 0.4487
1026.26 0.4486
1026.27 0.4484
1026.28 0.4482
1026.29 0.4480
1026.30 0.4478
1026.31 0.4476
1026.32 0.4473
1026.33 0.4471
1026.34 0.4468
1026.35 0.4466
1026.36 0.4465
1026.37 0.4463
1026.38 0.4461
1026.39 0.4460
1026.40 0.4461
1026.41 0.4459
1026.42 0.4456
1026.43 0.4454
1026.44 0.4451
1026.45 0.4448
1026.46 0.4447
1026.47 0.4446
1026.48 0.4445
1026.49 0.4443
1026.50 0.4442
1026.51 0.4441
1026.52 0.4438
1026.53 0.4435
1026.54 0.4432
1026.55 0.4429
1026.56 0.4427
1026.57 0.4426
1026.58 0.4426
1026.59 0.4425
1026.60 0.4424
1026.61 0.4423
1026.62 0.4420
1026.63 0.4416
1026.64 0.4413
1026.65 0.4409
1026.66 0.4408
1026.67 0.4407
1026.68 0.4407
1026.69 0.4406
1026.70 0.4405
1026.71 0.4405
1026.72 0.4401
1026.73 0.4398
1026.74 0.4394
1026.75 0.4390
1026.76 0.4388
1026.77 0.4388
1026.78 0.4388
1026.79 0.4387
1026.80 0.4387
1026.81 0.4386
1026.82 0.4382
1026.83 0.4379
1026.84 0.4375
1026.85 0.4371
1026.86 0.4369
1026.87 0.4368
1026.88 0.4368
1026.89 0.4368
1026.90 0.4367
1026.91 0.4367
1026.92 0.4363
1026.93 0.4359
1026.94 0.4355
1026.95 0.4351
1026.96 0.4349
1026.97 0.4348
1026.98 0.4348
1026.99 0.4347
1027.00 0.4347
1027.01 0.4347
1027.02 0.4343
1027.03 0.4339
1027.04 0.4335
1027.05 0.4331
1027.06 0.4328
1027.07 0.4328
1027.08 0.4327
1027.09 0.4326
1027.10 0.4325
1027.11 0.4325
1027.12 0.4321
1027.13 0.4318
1027.14 0.4314
1027.15 0.4310
1027.16 0.4307
1027.17 0.4306
1027.18 0.4305
1027.19 0.4304
1027.20 0.4303
1027.21 0.4303
1027.22 0.4300
1027.23 0.4296
1027.24 0.4293
1027.25 0.4289
1027.26 0.4286
1027.27 0.4285
1027.28 0.4284
1027.29 0.4282
1027.30 0.4281
1027.31 0.4280
1027.32 0.4277
1027.33 0.4274
1027.34 0.4271
1027.35 0.4268
1027.36 0.4265
1027.37 0.4263
1027.38 0.4261
1027.39 0.4260
1027.40 0.4258
1027.41 0.4257
1027.42 0.4252
1027.43 0.4249
1027.44 0.4247
1027.45 0.4244
1027.46 0.4241
1027.47 0.4239
1027.48 0.4237
1027.49 0.4235
1027.50 0.4233
1027.51 0.4232
1027.52 0.4230
1027.53 0.4228
1027.54 0.4226
1027.55 0.4223
1027.56 0.4220
1027.57 0.4217
1027.58 0.4215
1027.59 0.4213
1027.60 0.4210
1027.61 0.4209
1027.62 0.4207
1027.63 0.4206
1027.64 0.4204
1027.65 0.4205
1027.66 0.4201
1027.67 0.4198
1027.68 0.4196
1027.69 0.4193
1027.70 0.4190
1027.71 0.4189
1027.72 0.4188
1027.73 0.4186
1027.74 0.4185
1027.75 0.4184
1027.76 0.4180
1027.77 0.4177
1027.78 0.4174
1027.79 0.4171
1027.80 0.4168
1027.81 0.4166
1027.82 0.4165
1027.83 0.4165
1027.84 0.4164
1027.85 0.4163
1027.86 0.4159
1027.87 0.4155
1027.88 0.4152
1027.89 0.4149
1027.90 0.4145
1027.91 0.4144
1027.92 0.4143
1027.93 0.4142
1027.94 0.4142
1027.95 0.4141
1027.96 0.4137
1027.97 0.4133
1027.98 0.4130
1027.99 0.4126
1028.00 0.4123
1028.01 0.4121
1028.02 0.4120
1028.03 0.4120
1028.04 0.4119
1028.05 0.4118
1028.06 0.4114
1028.07 0.4111
1028.08 0.4107
1028.09 0.4103
1028.10 0.4099
1028.11 0.4097
1028.12 0.4097
1028.13 0.4096
1028.14 0.4096
1028.15 0.4095
1028.16 0.4091
1028.17 0.4087
1028.18 0.4083
1028.19 0.4079
1028.20 0.4076
1028.21 0.4073
1028.22 0.4073
1028.23 0.4072
1028.24 0.4071
1028.25 0.4071
1028.26 0.4067
1028.27 0.4063
1028.28 0.4059
1028.29 0.4055
1028.30 0.4052
1028.31 0.4049
1028.32 0.4048
1028.33 0.4048
1028.34 0.4047
1028.35 0.4046
1028.36 0.4042
1028.37 0.4038
1028.38 0.4035
1028.39 0.4031
1028.40 0.4028
1028.41 0.4025
1028.42 0.4024
1028.43 0.4023
1028.44 0.4022
1028.45 0.4021
1028.46 0.4017
1028.47 0.4014
1028.48 0.4010
1028.49 0.4007
1028.50 0.4003
1028.51 0.4001
1028.52 0.3999
1028.53 0.3998
1028.54 0.3996
1028.55 0.3995
1028.56 0.3992
1028.57 0.3989
1028.58 0.3986
1028.59 0.3983
1028.60 0.3980
1028.61 0.3977
1028.62 0.3975
1028.63 0.3973
1028.64 0.3972
1028.65 0.3970
1028.66 0.3967
1028.67 0.3962
1028.68 0.3960
1028.69 0.3957
1028.70 0.3954
1028.71 0.3951
1028.72 0.3949
1028.73 0.3947
1028.74 0.3945
1028.75 0.3943
1028.76 0.3941
1028.77 0.3939
1028.78 0.3937
1028.79 0.3935
1028.80 0.3932
1028.81 0.3929
1028.82 0.3927
1028.83 0.3924
1028.84 0.3922
1028.85 0.3920
1028.86 0.3918
1028.87 0.3916
1028.88 0.3914
1028.89 0.3912
1028.90 0.3913
1028.91 0.3910
1028.92 0.3907
1028.93 0.3904
1028.94 0.3902
1028.95 0.3899
1028.96 0.3898
1028.97 0.3896
1028.98 0.3895
1028.99 0.3894
1029.00 0.3892
1029.01 0.3889
1029.02 0.3886
1029.03 0.3883
1029.04 0.3880
1029.05 0.3877
1029.06 0.3876
1029.07 0.3875
1029.08 0.3874
1029.09 0.3873
1029.10 0.3872
1029.11 0.3868
1029.12 0.3865
1029.13 0.3862
1029.14 0.3858
1029.15 0.3855
1029.16 0.3854
1029.17 0.3853
1029.18 0.3853
1029.19 0.3852
1029.20 0.3851
1029.21 0.3847
1029.22 0.3844
1029.23 0.3840
1029.24 0.3837
1029.25 0.3833
1029.26 0.3833
1029.27 0.3832
1029.28 0.3831
1029.29 0.3831
1029.30 0.3830
1029.31 0.3826
1029.32 0.3822
1029.33 0.3819
1029.34 0.3815
1029.35 0.3812
1029.36 0.3811
1029.37 0.3810
1029.38 0.3810
1029.39 0.3809
1029.40 0.3808
1029.41 0.3804
1029.42 0.3801
1029.43 0.3797
1029.44 0.3793
1029.45 0.3790
1029.46 0.3789
1029.47 0.3788
1029.48 0.3787
1029.49 0.3787
1029.50 0.3786
1029.51 0.3782
1029.52 0.3779
1029.53 0.3775
1029.54 0.3771
1029.55 0.3767
1029.56 0.3767
1029.57 0.3766
1029.58 0.3765
1029.59 0.3764
1029.60 0.3763
1029.61 0.3759
1029.62 0.3756
1029.63 0.3752
1029.64 0.3749
1029.65 0.3745
1029.66 0.3744
1029.67 0.3743
1029.68 0.3742
1029.69 0.3741
1029.70 0.3740
1029.71 0.3736
1029.72 0.3733
1029.73 0.3730
1029.74 0.3726
1029.75 0.3723
1029.76 0.3722
1029.77 0.3720
1029.78 0.3719
1029.79 0.3717
1029.80 0.3716
1029.81 0.3713
1029.82 0.3710
1029.83 0.3707
1029.84 0.3704
1029.85 0.3701
1029.86 0.3699
1029.87 0.3698
1029.88 0.3696
1029.89 0.3694
1029.90 0.3692
1029.91 0.3690
1029.92 0.3685
1029.93 0.3682
1029.94 0.3680
1029.95 0.3677
1029.96 0.3675
1029.97 0.3673
1029.98 0.3671
1029.99 0.3669
1030.00 0.3668
1030.01 0.3665
1030.02 0.3663
1030.03 0.3661
1030.04 0.3659
1030.05 0.3657
1030.06 0.3654
1030.07 0.3652
1030.08 0.3650
1030.09 0.3647
1030.10 0.3645
1030.11 0.3643
1030.12 0.3641
1030.13 0.3640
1030.14 0.3638
1030.15 0.3638
1030.16 0.3636
1030.17 0.3633
1030.18 0.3630
1030.19 0.3628
1030.20 0.3625
1030.21 0.3624
1030.22 0.3622
1030.23 0.3621
1030.24 0.3620
1030.25 0.3618
1030.26 0.3615
1030.27 0.3613
1030.28 0.3610
1030.29 0.3607
1030.30 0.3604
1030.31 0.3603
1030.32 0.3602
1030.33 0.3601
1030.34 0.3600
1030.35 0.3599
1030.36 0.3595
1030.37 0.3592
1030.38 0.3589
1030.39 0.3586
1030.40 0.3583
1030.41 0.3582
1030.42 0.3581
1030.43 0.3580
1030.44 0.3579
1030.45 0.3578
1030.46 0.3575
1030.47 0.3572
1030.48 0.3568
1030.49 0.3565
1030.50 0.3562
1030.51 0.3561
1030.52 0.3560
1030.53 0.3559
1030.54 0.3559
1030.55 0.3558
1030.56 0.3554
1030.57 0.3551
1030.58 0.3547
1030.59 0.3544
1030.60 0.3540
1030.61 0.3539
1030.62 0.3539
1030.63 0.3538
1030.64 0.3537
1030.65 0.3537
1030.66 0.3533
1030.67 0.3529
1030.68 0.3526
1030.69 0.3522
1030.70 0.3519
1030.71 0.3518
1030.72 0.3517
1030.73 0.3516
1030.74 0.3515
1030.75 0.3515
1030.76 0.3511
1030.77 0.3507
1030.78 0.3504
1030.79 0.3500
1030.80 0.3497
1030.81 0.3496
1030.82 0.3495
1030.83 0.3494
1030.84 0.3493
1030.85 0.3492
1030.86 0.3488
1030.87 0.3485
1030.88 0.3482
1030.89 0.3478
1030.90 0.3475
1030.91 0.3474
1030.92 0.3472
1030.93 0.3471
1030.94 0.3470
1030.95 0.3469
1030.96 0.3466
1030.97 0.3462
1030.98 0.3459
1030.99 0.3456
1031.00 0.3453
1031.01 0.3451
1031.02 0.3450
1031.03 0.3448
1031.04 0.3447
1031.05 0.3445
1031.06 0.3443
1031.07 0.3440
1031.08 0.3437
1031.09 0.3434
1031.10 0.3431
1031.11 0.3429
1031.12 0.3427
1031.13 0.3426
1031.14 0.3424
1031.15 0.3422
1031.16 0.3418
1031.17 0.3415
1031.18 0.3413
1031.19 0.3410
1031.20 0.3408
1031.21 0.3406
1031.22 0.3404
1031.23 0.3402
1031.24 0.3400
1031.25 0.3398
1031.26 0.3396
1031.27 0.3393
1031.28 0.3391
1031.29 0.3389
1031.30 0.3387
1031.31 0.3385
1031.32 0.3382
1031.33 0.3380
1031.34 0.3378
1031.35 0.3375
1031.36 0.3373
1031.37 0.3372
1031.38 0.3370
1031.39 0.3370
1031.40 0.3368
1031.41 0.3366
1031.42 0.3363
1031.43 0.3361
1031.44 0.3358
1031.45 0.3356
1031.46 0.3354
1031.47 0.3353
1031.48 0.3351
1031.49 0.3350
1031.50 0.3349
1031.51 0.3346
1031.52 0.3343
1031.53 0.3340
1031.54 0.3337
1031.55 0.3334
1031.56 0.3333
1031.57 0.3332
1031.58 0.3331
1031.59 0.3330
1031.60 0.3329
1031.61 0.3326
1031.62 0.3323
1031.63 0.3319
1031.64 0.3316
1031.65 0.3313
1031.66 0.3312
1031.67 0.3311
1031.68 0.3311
1031.69 0.3310
1031.70 0.3309
1031.71 0.3305
1031.72 0.3302
1031.73 0.3299
1031.74 0.3296
1031.75 0.3292
1031.76 0.3291
1031.77 0.3291
1031.78 0.3290
1031.79 0.3289
1031.80 0.3288
1031.81 0.3285
1031.82 0.3281
1031.83 0.3278
1031.84 0.3275
1031.85 0.3271
1031.86 0.3270
1031.87 0.3270
1031.88 0.3269
1031.89 0.3268
1031.90 0.3267
1031.91 0.3264
1031.92 0.3260
1031.93 0.3257
1031.94 0.3253
1031.95 0.3250
1031.96 0.3249
1031.97 0.3248
1031.98 0.3247
1031.99 0.3246
1032.00 0.3246
1032.01 0.3242
1032.02 0.3239
1032.03 0.3235
1032.04 0.3232
1032.05 0.3228
1032.06 0.3227
1032.07 0.3226
1032.08 0.3225
1032.09 0.3224
1032.10 0.3224
1032.11 0.3220
1032.12 0.3217
1032.13 0.3214
1032.14 0.3210
1032.15 0.3207
1032.16 0.3206
1032.17 0.3204
1032.18 0.3203
1032.19 0.3202
1032.20 0.3201
1032.21 0.3198
1032.22 0.3195
1032.23 0.3192
1032.24 0.3189
1032.25 0.3185
1032.26 0.3184
1032.27 0.3183
1032.28 0.3181
1032.29 0.3180
1032.30 0.3179
1032.31 0.3176
1032.32 0.3173
1032.33 0.3170
1032.34 0.3167
1032.35 0.3164
1032.36 0.3163
1032.37 0.3161
1032.38 0.3159
1032.39 0.3157
1032.40 0.3156
1032.41 0.3152
1032.42 0.3149
1032.43 0.3147
1032.44 0.3144
1032.45 0.3142
1032.46 0.3140
1032.47 0.3138
1032.48 0.3136
1032.49 0.3134
1032.50 0.3133
1032.51 0.3131
1032.52 0.3129
1032.53 0.3126
1032.54 0.3124
1032.55 0.3122
1032.56 0.3120
1032.57 0.3117
1032.58 0.3115
1032.59 0.3113
1032.60 0.3112
1032.61 0.3110
1032.62 0.3108
1032.63 0.3106
1032.64 0.3106
1032.65 0.3104
1032.66 0.3102
1032.67 0.3099
1032.68 0.3097
1032.69 0.3094
1032.70 0.3093
1032.71 0.3091
1032.72 0.3090
1032.73 0.3088
1032.74 0.3087
1032.75 0.3086
1032.76 0.3083
1032.77 0.3080
1032.78 0.3077
1032.79 0.3074
1032.80 0.3073
1032.81 0.3072
1032.82 0.3070
1032.83 0.3069
1032.84 0.3068
1032.85 0.3067
1032.86 0.3064
1032.87 0.3061
1032.88 0.3058
1032.89 0.3055
1032.90 0.3053
1032.91 0.3052
1032.92 0.3051
1032.93 0.3050
1032.94 0.3049
1032.95 0.3048
1032.96 0.3045
1032.97 0.3042
1032.98 0.3038
1032.99 0.3035
1033.00 0.3033
1033.01 0.3032
1033.02 0.3031
1033.03 0.3030
1033.04 0.3029
1033.05 0.3029
1033.06 0.3025
1033.07 0.3022
1033.08 0.3019
1033.09 0.3015
1033.10 0.3013
1033.11 0.3012
1033.12 0.3011
1033.13 0.3011
1033.14 0.3010
1033.15 0.3009
1033.16 0.3005
1033.17 0.3002
1033.18 0.2999
1033.19 0.2995
1033.20 0.2993
1033.21 0.2992
1033.22 0.2991
1033.23 0.2990
1033.24 0.2989
1033.25 0.2988
1033.26 0.2985
1033.27 0.2982
1033.28 0.2978
1033.29 0.2975
1033.30 0.2973
1033.31 0.2971
1033.32 0.2970
1033.33 0.2969
1033.34 0.2968
1033.35 0.2967
1033.36 0.2964
1033.37 0.2961
1033.38 0.2958
1033.39 0.2954
1033.40 0.2952
1033.41 0.2950
1033.42 0.2949
1033.43 0.2948
1033.44 0.2946
1033.45 0.2946
1033.46 0.2943
1033.47 0.2939
1033.48 0.2936
1033.49 0.2933
1033.50 0.2931
1033.51 0.2929
1033.52 0.2928
1033.53 0.2926
1033.54 0.2925
1033.55 0.2923
1033.56 0.2921
1033.57 0.2918
1033.58 0.2915
1033.59 0.2912
1033.60 0.2909
1033.61 0.2908
1033.62 0.2906
1033.63 0.2904
1033.64 0.2902
1033.65 0.2901
1033.66 0.2897
1033.67 0.2894
1033.68 0.2892
1033.69 0.2890
1033.70 0.2887
1033.71 0.2885
1033.72 0.2883
1033.73 0.2881
1033.74 0.2879
1033.75 0.2877
1033.76 0.2875
1033.77 0.2873
1033.78 0.2871
1033.79 0.2869
1033.80 0.2866
1033.81 0.2863
1033.82 0.2861
1033.83 0.2859
1033.84 0.2857
1033.85 0.2855
1033.86 0.2853
1033.87 0.2851
1033.88 0.2850
1033.89 0.2849
1033.90 0.2846
1033.91 0.2844
1033.92 0.2841
1033.93 0.2839
1033.94 0.2836
1033.95 0.2835
1033.96 0.2833
1033.97 0.2832
1033.98 0.2830
1033.99 0.2829
1034.00 0.2825
1034.01 0.2823
1034.02 0.2820
1034.03 0.2817
1034.04 0.2815
1034.05 0.2813
1034.06 0.2812
1034.07 0.2810
1034.08 0.2809
1034.09 0.2808
1034.10 0.2804
1034.11 0.2801
1034.12 0.2799
1034.13 0.2796
1034.14 0.2793
1034.15 0.2791
1034.16 0.2790
1034.17 0.2789
1034.18 0.2788
1034.19 0.2786
1034.20 0.2783
1034.21 0.2780
1034.22 0.2777
1034.23 0.2774
1034.24 0.2771
1034.25 0.2769
1034.26 0.2768
1034.27 0.2767
1034.28 0.2766
1034.29 0.2764
1034.30 0.2761
1034.31 0.2758
1034.32 0.2755
1034.33 0.2751
1034.34 0.2748
1034.35 0.2746
1034.36 0.2745
1034.37 0.2744
1034.38 0.2743
1034.39 0.2742
1034.40 0.2739
1034.41 0.2735
1034.42 0.2732
1034.43 0.2729
1034.44 0.2726
1034.45 0.2723
1034.46 0.2722
1034.47 0.2721
1034.48 0.2720
1034.49 0.2719
1034.50 0.2716
1034.51 0.2712
1034.52 0.2709
1034.53 0.2706
1034.54 0.2703
1034.55 0.2700
1034.56 0.2699
1034.57 0.2698
1034.58 0.2697
1034.59 0.2695
1034.60 0.2692
1034.61 0.2689
1034.62 0.2686
1034.63 0.2683
1034.64 0.2680
1034.65 0.2677
1034.66 0.2676
1034.67 0.2674
1034.68 0.2673
1034.69 0.2672
1034.70 0.2669
1034.71 0.2666
1034.72 0.2663
1034.73 0.2660
1034.74 0.2657
1034.75 0.2654
1034.76 0.2653
1034.77 0.2651
1034.78 0.2649
1034.79 0.2648
1034.80 0.2645
1034.81 0.2642
1034.82 0.2640
1034.83 0.2637
1034.84 0.2634
1034.85 0.2631
1034.86 0.2630
1034.87 0.2628
1034.88 0.2626
1034.89 0.2624
1034.90 0.2622
1034.91 0.2618
1034.92 0.2615
1034.93 0.2613
1034.94 0.2610
1034.95 0.2608
1034.96 0.2606
1034.97 0.2604
1034.98 0.2602
1034.99 0.2600
1035.00 0.2597
1035.01 0.2595
1035.02 0.2593
1035.03 0.2591
1035.04 0.2589
1035.05 0.2586
1035.06 0.2584
1035.07 0.2581
1035.08 0.2579
1035.09 0.2577
1035.10 0.2575
1035.11 0.2573
1035.12 0.2571
1035.13 0.2569
1035.14 0.2569
1035.15 0.2566
1035.16 0.2564
1035.17 0.2561
1035.18 0.2559
1035.19 0.2556
1035.20 0.2555
1035.21 0.2553
1035.22 0.2552
1035.23 0.2550
1035.24 0.2549
1035.25 0.2545
1035.26 0.2543
1035.27 0.2540
1035.28 0.2537
1035.29 0.2535
1035.30 0.2533
1035.31 0.2532
1035.32 0.2531
1035.33 0.2529
1035.34 0.2528
1035.35 0.2525
1035.36 0.2522
1035.37 0.2519
1035.38 0.2516
1035.39 0.2513
1035.40 0.2512
1035.41 0.2511
1035.42 0.2510
1035.43 0.2509
1035.44 0.2507
1035.45 0.2504
1035.46 0.2501
1035.47 0.2498
1035.48 0.2495
1035.49 0.2492
1035.50 0.2491
1035.51 0.2490
1035.52 0.2489
1035.53 0.2488
1035.54 0.2486
1035.55 0.2483
1035.56 0.2480
1035.57 0.2477
1035.58 0.2474
1035.59 0.2471
1035.60 0.2470
1035.61 0.2469
1035.62 0.2467
1035.63 0.2466
1035.64 0.2465
1035.65 0.2462
1035.66 0.2459
1035.67 0.2456
1035.68 0.2452
1035.69 0.2449
1035.70 0.2448
1035.71 0.2447
1035.72 0.2446
1035.73 0.2445
1035.74 0.2443
1035.75 0.2440
1035.76 0.2437
1035.77 0.2434
1035.78 0.2431
1035.79 0.2428
1035.80 0.2426
1035.81 0.2425
1035.82 0.2424
1035.83 0.2423
1035.84 0.2421
1035.85 0.2418
1035.86 0.2415
1035.87 0.2412
1035.88 0.2409
1035.89 0.2406
1035.90 0.2405
1035.91 0.2403
1035.92 0.2402
1035.93 0.2400
1035.94 0.2399
1035.95 0.2396
1035.96 0.2393
1035.97 0.2390
1035.98 0.2387
1035.99 0.2384
1036.00 0.2383
1036.01 0.2381
1036.02 0.2380
1036.03 0.2378
1036.04 0.2376
1036.05 0.2374
1036.06 0.2371
1036.07 0.2368
1036.08 0.2366
1036.09 0.2363
1036.10 0.2361
1036.11 0.2359
1036.12 0.2357
1036.13 0.2356
1036.14 0.2354
1036.15 0.2351
1036.16 0.2348
1036.17 0.2345
1036.18 0.2343
1036.19 0.2340
1036.20 0.2338
1036.21 0.2336
1036.22 0.2334
1036.23 0.2332
1036.24 0.2330
1036.25 0.2328
1036.26 0.2326
1036.27 0.2324
1036.28 0.2322
1036.29 0.2320
1036.30 0.2318
1036.31 0.2315
1036.32 0.2313
1036.33 0.2311
1036.34 0.2309
1036.35 0.2307
1036.36 0.2305
1036.37 0.2303
1036.38 0.2302
1036.39 0.2301
1036.40 0.2298
1036.41 0.2296
1036.42 0.2293
1036.43 0.2291
1036.44 0.2289
1036.45 0.2287
1036.46 0.2285
1036.47 0.2284
1036.48 0.2282
1036.49 0.2281
1036.50 0.2278
1036.51 0.2275
1036.52 0.2273
1036.53 0.2270
1036.54 0.2268
1036.55 0.2266
1036.56 0.2265
1036.57 0.2263
1036.58 0.2262
1036.59 0.2261
1036.60 0.2258
1036.61 0.2255
1036.62 0.2252
1036.63 0.2250
1036.64 0.2247
1036.65 0.2246
1036.66 0.2244
1036.67 0.2243
1036.68 0.2242
1036.69 0.2240
1036.70 0.2237
1036.71 0.2235
1036.72 0.2232
1036.73 0.2229
1036.74 0.2226
1036.75 0.2225
1036.76 0.2223
1036.77 0.2222
1036.78 0.2221
1036.79 0.2220
1036.80 0.2217
1036.81 0.2214
1036.82 0.2211
1036.83 0.2208
1036.84 0.2205
1036.85 0.2204
1036.86 0.2203
1036.87 0.2201
1036.88 0.2200
1036.89 0.2199
1036.90 0.2196
1036.91 0.2193
1036.92 0.2190
1036.93 0.2187
1036.94 0.2184
1036.95 0.2183
1036.96 0.2181
1036.97 0.2180
1036.98 0.2179
1036.99 0.2178
1037.00 0.2175
1037.01 0.2172
1037.02 0.2169
1037.03 0.2166
1037.04 0.2163
1037.05 0.2161
1037.06 0.2160
1037.07 0.2159
1037.08 0.2157
1037.09 0.2156
1037.10 0.2153
1037.11 0.2150
1037.12 0.2147
1037.13 0.2144
1037.14 0.2142
1037.15 0.2140
1037.16 0.2139
1037.17 0.2137
1037.18 0.2136
1037.19 0.2134
1037.20 0.2132
1037.21 0.2129
1037.22 0.2126
1037.23 0.2123
1037.24 0.2120
1037.25 0.2119
1037.26 0.2117
1037.27 0.2115
1037.28 0.2114
1037.29 0.2112
1037.30 0.2110
1037.31 0.2107
1037.32 0.2105
1037.33 0.2102
1037.34 0.2099
1037.35 0.2098
1037.36 0.2096
1037.37 0.2094
1037.38 0.2092
1037.39 0.2091
1037.40 0.2087
1037.41 0.2085
1037.42 0.2082
1037.43 0.2080
1037.44 0.2078
1037.45 0.2076
1037.46 0.2074
1037.47 0.2072
1037.48 0.2070
1037.49 0.2068
1037.50 0.2066
1037.51 0.2064
1037.52 0.2062
1037.53 0.2060
1037.54 0.2058
1037.55 0.2055
1037.56 0.2053
1037.57 0.2051
1037.58 0.2049
1037.59 0.2047
1037.60 0.2045
1037.61 0.2043
1037.62 0.2041
1037.63 0.2040
1037.64 0.2038
1037.65 0.2035
1037.66 0.2033
1037.67 0.2030
1037.68 0.2028
1037.69 0.2026
1037.70 0.2024
1037.71 0.2023
1037.72 0.2021
1037.73 0.2019
1037.74 0.2017
1037.75 0.2015
1037.76 0.2012
1037.77 0.2010
1037.78 0.2007
1037.79 0.2005
1037.80 0.2003
1037.81 0.2002
1037.82 0.2000
1037.83 0.1999
1037.84 0.1997
1037.85 0.1994
1037.86 0.1991
1037.87 0.1988
1037.88 0.1986
1037.89 0.1984
1037.90 0.1982
1037.91 0.1981
1037.92 0.1979
1037.93 0.1977
1037.94 0.1976
1037.95 0.1973
1037.96 0.1970
1037.97 0.1967
1037.98 0.1964
1037.99 0.1962
1038.00 0.1960
1038.01 0.1959
1038.02 0.1957
1038.03 0.1955
1038.04 0.1954
1038.05 0.1951
1038.06 0.1948
1038.07 0.1944
1038.08 0.1941
1038.09 0.1939
1038.10 0.1937
1038.11 0.1935
1038.12 0.1934
1038.13 0.1932
1038.14 0.1931
1038.15 0.1927
1038.16 0.1924
1038.17 0.1921
1038.18 0.1917
1038.19 0.1915
1038.20 0.1913
1038.21 0.1911
1038.22 0.1909
1038.23 0.1907
1038.24 0.1905
1038.25 0.1902
1038.26 0.1899
1038.27 0.1895
1038.28 0.1892
1038.29 0.1889
1038.30 0.1887
1038.31 0.1885
1038.32 0.1883
1038.33 0.1880
1038.34 0.1878
1038.35 0.1875
1038.36 0.1871
1038.37 0.1868
1038.38 0.1864
1038.39 0.1861
1038.40 0.1858
1038.41 0.1856
1038.42 0.1854
1038.43 0.1851
1038.44 0.1849
1038.45 0.1845
1038.46 0.1841
1038.47 0.1838
1038.48 0.1834
1038.49 0.1830
1038.50 0.1828
1038.51 0.1825
1038.52 0.1822
1038.53 0.1819
1038.54 0.1816
1038.55 0.1812
1038.56 0.1809
1038.57 0.1805
1038.58 0.1801
1038.59 0.1797
1038.60 0.1794
1038.61 0.1790
1038.62 0.1787
1038.63 0.1784
1038.64 0.1781
1038.65 0.1775
1038.66 0.1771
1038.67 0.1767
1038.68 0.1763
1038.69 0.1759
1038.70 0.1755
1038.71 0.1751
1038.72 0.1748
1038.73 0.1744
1038.74 0.1740
1038.75 0.1736
1038.76 0.1731
1038.77 0.1727
1038.78 0.1723
1038.79 0.1718
1038.80 0.1714
1038.81 0.1709
1038.82 0.1705
1038.83 0.1700
1038.84 0.1696
1038.85 0.1691
1038.86 0.1687
1038.87 0.1682
1038.88 0.1678
1038.89 0.1672
1038.90 0.1667
1038.91 0.1662
1038.92 0.1657
1038.93 0.1652
1038.94 0.1647
1038.95 0.1642
1038.96 0.1637
1038.97 0.1632
1038.98 0.1627
1038.99 0.1621
1039.00 0.1615
1039.01 0.1609
1039.02 0.1603
1039.03 0.1597
1039.04 0.1592
1039.05 0.1586
1039.06 0.1581
1039.07 0.1575
1039.08 0.1570
1039.09 0.1563
1039.10 0.1556
1039.11 0.1550
1039.12 0.1543
1039.13 0.1537
1039.14 0.1530
1039.15 0.1524
1039.16 0.1518
1039.17 0.1512
1039.18 0.1506
1039.19 0.1498
1039.20 0.1491
1039.21 0.1484
1039.22 0.1476
1039.23 0.1469
1039.24 0.1462
1039.25 0.1455
1039.26 0.1449
1039.27 0.1442
1039.28 0.1435
1039.29 0.1427
1039.30 0.1419
1039.31 0.1411
1039.32 0.1403
1039.33 0.1395
1039.34 0.1387
1039.35 0.1380
1039.36 0.1372
1039.37 0.1365
1039.38 0.1358
1039.39 0.1349
1039.40 0.1340
1039.41 0.1332
1039.42 0.1323
1039.43 0.1314
1039.44 0.1306
1039.45 0.1298
1039.46 0.1290
1039.47 0.1282
1039.48 0.1274
1039.49 0.1265
1039.50 0.1255
1039.51 0.1246
1039.52 0.1237
1039.53 0.1227
1039.54 0.1218
1039.55 0.1210
1039.56 0.1201
1039.57 0.1193
1039.58 0.1184
1039.59 0.1174
1039.60 0.1165
1039.61 0.1155
1039.62 0.1145
1039.63 0.1136
1039.64 0.1126
1039.65 0.1117
1039.66 0.1108
1039.67 0.1099
1039.68 0.1090
1039.69 0.1080
1039.70 0.1070
1039.71 0.1060
1039.72 0.1050
1039.73 0.1040
1039.74 0.1030
1039.75 0.1021
1039.76 0.1011
1039.77 0.1002
1039.78 0.0993
1039.79 0.0982
1039.80 0.0972
1039.81 0.0962
1039.82 0.0952
1039.83 0.0942
1039.84 0.0932
1039.85 0.0922
1039.86 0.0913
1039.87 0.0903
1039.88 0.0894
1039.89 0.0884
1039.90 0.0873
1039.91 0.0862
1039.92 0.0852
1039.93 0.0842
1039.94 0.0832
1039.95 0.0823
1039.96 0.0813
1039.97 0.0804
1039.98 0.0795
1039.99 0.0785
1040.00 0.0775
1040.01 0.0765
1040.02 0.0755
1040.03 0.0745
1040.04 0.0735
1040.05 0.0726
1040.06 0.0717
1040.07 0.0708
1040.08 0.0698
1040.09 0.0689
1040.10 0.0679
1040.11 0.0670
1040.12 0.0660
1040.13 0.0651
1040.14 0.0642
1040.15 0.0633
1040.16 0.0624
1040.17 0.0615
1040.18 0.0606
1040.19 0.0597
1040.20 0.0588
1040.21 0.0579
1040.22 0.0570
1040.23 0.0561
1040.24 0.0552
1040.25 0.0544
1040.26 0.0535
1040.27 0.0527
1040.28 0.0518
1040.29 0.0510
1040.30 0.0502
1040.31 0.0494
1040.32 0.0485
1040.33 0.0477
1040.34 0.0469
1040.35 0.0461
1040.36 0.0453
1040.37 0.0445
1040.38 0.0438
1040.39 0.0430
1040.40 0.0423
1040.41 0.0415
1040.42 0.0408
1040.43 0.0400
1040.44 0.0393
1040.45 0.0386
1040.46 0.0379
1040.47 0.0371
1040.48 0.0364
1040.49 0.0358
1040.50 0.0351
1040.51 0.0344
1040.52 0.0338
1040.53 0.0331
1040.54 0.0325
1040.55 0.0318
1040.56 0.0312
1040.57 0.0305
1040.58 0.0299
1040.59 0.0293
1040.60 0.0287
1040.61 0.0281
1040.62 0.0276
1040.63 0.0270
1040.64 0.0264
1040.65 0.0259
1040.66 0.0253
1040.67 0.0247
1040.68 0.0242
1040.69 0.0237
1040.70 0.0232
1040.71 0.0227
1040.72 0.0222
1040.73 0.0217
1040.74 0.0212
1040.75 0.0207
1040.76 0.0202
1040.77 0.0197
1040.78 0.0193
1040.79 0.0188
1040.80 0.0184
1040.81 0.0180
1040.82 0.0176
1040.83 0.0172
1040.84 0.0168
1040.85 0.0164
1040.86 0.0159
1040.87 0.0155
1040.88 0.0151
1040.89 0.0148
1040.90 0.0144
1040.91 0.0141
1040.92 0.0137
1040.93 0.0134
1040.94 0.0131
1040.95 0.0127
1040.96 0.0124
1040.97 0.0120
1040.98 0.0117
1040.99 0.0114
1041.00 0.0111
1041.01 0.0109
1041.02 0.0106
1041.03 0.0103
1041.04 0.0100
1041.05 0.0097
1041.06 0.0095
1041.07 0.0092
1041.08 0.0089
1041.09 0.0087
1041.10 0.0085
1041.11 0.0082
1041.12 0.0080
1041.13 0.0078
1041.14 0.0076
1041.15 0.0073
1041.16 0.0071
1041.17 0.0068
1041.18 0.0066
1041.19 0.0065
1041.20 0.0063
1041.21 0.0061
1041.22 0.0059
1041.23 0.0058
1041.24 0.0056
1041.25 0.0054
1041.26 0.0052
1041.27 0.0051
1041.28 0.0049
1041.29 0.0048
1041.30 0.0046
1041.31 0.0045
1041.32 0.0044
1041.33 0.0042
1041.34 0.0041
1041.35 0.0040
1041.36 0.0038
1041.37 0.0037
1041.38 0.0036
1041.39 0.0035
1041.40 0.0034
1041.41 0.0033
1041.42 0.0032
1041.43 0.0031
1041.44 0.0030
1041.45 0.0029
1041.46 0.0028
1041.47 0.0027
1041.48 0.0026
1041.49 0.0025
1041.50 0.0024
1041.51 0.0023
1041.52 0.0023
1041.53 0.0022
1041.54 0.0021
1041.55 0.0020
1041.56 0.0020
1041.57 0.0019
1041.58 0.0018
1041.59 0.0018
1041.60 0.0017
1041.61 0.0016
1041.62 0.0016
1041.63 0.0015
1041.64 0.0015
1041.65 0.0014
1041.66 0.0014
1041.67 0.0013
1041.68 0.0013
1041.69 0.0012
1041.70 0.0012
1041.71 0.0011
1041.72 0.0011
1041.73 0.0011
1041.74 0.0010
1041.75 0.0010
1041.76 0.0009
1041.77 0.0009
1041.78 0.0009
1041.79 0.0008
1041.80 0.0008
1041.81 0.0008
1041.82 0.0007
1041.83 0.0007
1041.84 0.0007
1041.85 0.0007
1041.86 0.0006
1041.87 0.0006
1041.88 0.0006
1041.89 0.0006
1041.90 0.0005
1041.91 0.0005
1041.92 0.0005
1041.93 0.0005
1041.94 0.0005
1041.95 0.0004
1041.96 0.0004
1041.97 0.0004
1041.98 0.0004
1041.99 0.0004
1042.00 0.0004
1042.01 0.0003
1042.02 0.0003
1042.03 0.0003
1042.04 0.0003
1042.05 0.0003
1042.06 0.0003
1042.07 0.0003
1042.08 0.0003
1042.09 0.0002
1042.10 0.0002
1042.11 0.0002
1042.12 0.0002
1042.13 0.0002
1042.14 0.0002
1042.15 0.0002
1042.16 0.0002
1042.17 0.0002
1042.18 0.0002
1042.19 0.0002
1042.20 0.0002
1042.21 0.0001
1042.22 0.0001
1042.23 0.0001
1042.24 0.0001
1042.25 0.0001
1042.26 0.0001
1042.27 0.0001
1042.28 0.0001
1042.29 0.0001
1042.30 0.0001
1042.31 0.0001
1042.32 0.0001
1042.33 0.0001
1042.34 0.0001
1042.35 0.0001
1042.36 0.0001
1042.37 0.0001
1042.38 0.0001
