# Provided by ESA in 10/2012
# Important Notes:
# The data contained here correspond to the OLCI Spectral Model CDR derived in 2011.
# The data have been calculated for the camera 4, pointing nadir.
434.52  0.0006
434.53  0.0007
434.54  0.0007
434.55  0.0007
434.56  0.0008
434.57  0.0008
434.58  0.0009
434.59  0.0009
434.60  0.0009
434.61  0.0010
434.62  0.0010
434.63  0.0010
434.64  0.0011
434.65  0.0012
434.66  0.0012
434.67  0.0013
434.68  0.0013
434.69  0.0014
434.70  0.0014
434.71  0.0015
434.72  0.0015
434.73  0.0016
434.74  0.0017
434.75  0.0018
434.76  0.0019
434.77  0.0019
434.78  0.0020
434.79  0.0021
434.80  0.0022
434.81  0.0023
434.82  0.0023
434.83  0.0025
434.84  0.0026
434.85  0.0027
434.86  0.0028
434.87  0.0029
434.88  0.0031
434.89  0.0032
434.90  0.0033
434.91  0.0034
434.92  0.0035
434.93  0.0037
434.94  0.0039
434.95  0.0040
434.96  0.0042
434.97  0.0044
434.98  0.0045
434.99  0.0047
435.00  0.0049
435.01  0.0050
435.02  0.0052
435.03  0.0054
435.04  0.0057
435.05  0.0059
435.06  0.0062
435.07  0.0064
435.08  0.0066
435.09  0.0069
435.10  0.0071
435.11  0.0074
435.12  0.0076
435.13  0.0079
435.14  0.0082
435.15  0.0086
435.16  0.0089
435.17  0.0092
435.18  0.0096
435.19  0.0099
435.20  0.0102
435.21  0.0105
435.22  0.0109
435.23  0.0113
435.24  0.0118
435.25  0.0122
435.26  0.0127
435.27  0.0131
435.28  0.0136
435.29  0.0140
435.30  0.0145
435.31  0.0149
435.32  0.0154
435.33  0.0160
435.34  0.0166
435.35  0.0172
435.36  0.0178
435.37  0.0184
435.38  0.0190
435.39  0.0196
435.40  0.0202
435.41  0.0208
435.42  0.0214
435.43  0.0221
435.44  0.0229
435.45  0.0237
435.46  0.0245
435.47  0.0253
435.48  0.0261
435.49  0.0269
435.50  0.0277
435.51  0.0284
435.52  0.0292
435.53  0.0303
435.54  0.0313
435.55  0.0323
435.56  0.0333
435.57  0.0343
435.58  0.0353
435.59  0.0364
435.60  0.0374
435.61  0.0384
435.62  0.0394
435.63  0.0407
435.64  0.0420
435.65  0.0433
435.66  0.0446
435.67  0.0459
435.68  0.0472
435.69  0.0485
435.70  0.0498
435.71  0.0510
435.72  0.0523
435.73  0.0539
435.74  0.0556
435.75  0.0578
435.76  0.0594
435.77  0.0611
435.78  0.0627
435.79  0.0644
435.80  0.0660
435.81  0.0677
435.82  0.0693
435.83  0.0713
435.84  0.0733
435.85  0.0753
435.86  0.0773
435.87  0.0794
435.88  0.0814
435.89  0.0834
435.90  0.0854
435.91  0.0874
435.92  0.0895
435.93  0.0919
435.94  0.0943
435.95  0.0967
435.96  0.0991
435.97  0.1016
435.98  0.1040
435.99  0.1065
436.00  0.1089
436.01  0.1113
436.02  0.1138
436.03  0.1166
436.04  0.1195
436.05  0.1224
436.06  0.1252
436.07  0.1281
436.08  0.1310
436.09  0.1339
436.10  0.1368
436.11  0.1397
436.12  0.1426
436.13  0.1459
436.14  0.1492
436.15  0.1526
436.16  0.1559
436.17  0.1593
436.18  0.1627
436.19  0.1660
436.20  0.1694
436.21  0.1728
436.22  0.1761
436.23  0.1799
436.24  0.1837
436.25  0.1875
436.26  0.1913
436.27  0.1952
436.28  0.1990
436.29  0.2029
436.30  0.2067
436.31  0.2106
436.32  0.2144
436.33  0.2187
436.34  0.2229
436.35  0.2271
436.36  0.2314
436.37  0.2358
436.38  0.2401
436.39  0.2444
436.40  0.2487
436.41  0.2530
436.42  0.2573
436.43  0.2620
436.44  0.2666
436.45  0.2713
436.46  0.2760
436.47  0.2808
436.48  0.2855
436.49  0.2903
436.50  0.2950
436.51  0.2998
436.52  0.3045
436.53  0.3095
436.54  0.3145
436.55  0.3195
436.56  0.3246
436.57  0.3298
436.58  0.3349
436.59  0.3400
436.60  0.3452
436.61  0.3503
436.62  0.3554
436.63  0.3607
436.64  0.3659
436.65  0.3712
436.66  0.3766
436.67  0.3821
436.68  0.3875
436.69  0.3930
436.70  0.3984
436.71  0.4038
436.72  0.4093
436.73  0.4147
436.74  0.4201
436.75  0.4255
436.76  0.4312
436.77  0.4368
436.78  0.4425
436.79  0.4481
436.80  0.4538
436.81  0.4594
436.82  0.4651
436.83  0.4705
436.84  0.4760
436.85  0.4815
436.86  0.4873
436.87  0.4930
436.88  0.4988
436.89  0.5045
436.90  0.5102
436.91  0.5160
436.92  0.5217
436.93  0.5272
436.94  0.5326
436.95  0.5380
436.96  0.5437
436.97  0.5495
436.98  0.5552
436.99  0.5609
437.00  0.5673
437.01  0.5730
437.02  0.5788
437.03  0.5841
437.04  0.5894
437.05  0.5946
437.06  0.6003
437.07  0.6059
437.08  0.6115
437.09  0.6171
437.10  0.6228
437.11  0.6284
437.12  0.6341
437.13  0.6391
437.14  0.6441
437.15  0.6491
437.16  0.6545
437.17  0.6599
437.18  0.6653
437.19  0.6707
437.20  0.6760
437.21  0.6815
437.22  0.6869
437.23  0.6915
437.24  0.6962
437.25  0.7008
437.26  0.7059
437.27  0.7109
437.28  0.7160
437.29  0.7211
437.30  0.7261
437.31  0.7312
437.32  0.7363
437.33  0.7405
437.34  0.7448
437.35  0.7490
437.36  0.7536
437.37  0.7583
437.38  0.7629
437.39  0.7676
437.40  0.7722
437.41  0.7769
437.42  0.7816
437.43  0.7854
437.44  0.7891
437.45  0.7929
437.46  0.7971
437.47  0.8013
437.48  0.8054
437.49  0.8096
437.50  0.8138
437.51  0.8180
437.52  0.8223
437.53  0.8255
437.54  0.8288
437.55  0.8321
437.56  0.8358
437.57  0.8395
437.58  0.8431
437.59  0.8468
437.60  0.8505
437.61  0.8542
437.62  0.8580
437.63  0.8608
437.64  0.8636
437.65  0.8664
437.66  0.8696
437.67  0.8727
437.68  0.8759
437.69  0.8790
437.70  0.8821
437.71  0.8854
437.72  0.8887
437.73  0.8911
437.74  0.8934
437.75  0.8958
437.76  0.8985
437.77  0.9011
437.78  0.9037
437.79  0.9063
437.80  0.9090
437.81  0.9117
437.82  0.9145
437.83  0.9165
437.84  0.9185
437.85  0.9205
437.86  0.9227
437.87  0.9248
437.88  0.9269
437.89  0.9291
437.90  0.9312
437.91  0.9335
437.92  0.9358
437.93  0.9375
437.94  0.9392
437.95  0.9409
437.96  0.9425
437.97  0.9442
437.98  0.9459
437.99  0.9475
438.00  0.9492
438.01  0.9511
438.02  0.9530
438.03  0.9544
438.04  0.9558
438.05  0.9572
438.06  0.9585
438.07  0.9597
438.08  0.9610
438.09  0.9622
438.10  0.9635
438.11  0.9650
438.12  0.9665
438.13  0.9677
438.14  0.9689
438.15  0.9701
438.16  0.9710
438.17  0.9718
438.18  0.9727
438.19  0.9736
438.20  0.9745
438.21  0.9756
438.22  0.9768
438.23  0.9778
438.24  0.9795
438.25  0.9805
438.26  0.9811
438.27  0.9817
438.28  0.9823
438.29  0.9828
438.30  0.9834
438.31  0.9843
438.32  0.9853
438.33  0.9862
438.34  0.9871
438.35  0.9880
438.36  0.9883
438.37  0.9886
438.38  0.9889
438.39  0.9892
438.40  0.9895
438.41  0.9902
438.42  0.9909
438.43  0.9917
438.44  0.9926
438.45  0.9934
438.46  0.9935
438.47  0.9935
438.48  0.9936
438.49  0.9937
438.50  0.9938
438.51  0.9943
438.52  0.9948
438.53  0.9955
438.54  0.9962
438.55  0.9970
438.56  0.9969
438.57  0.9968
438.58  0.9967
438.59  0.9966
438.60  0.9965
438.61  0.9968
438.62  0.9971
438.63  0.9977
438.64  0.9984
438.65  0.9991
438.66  0.9988
438.67  0.9986
438.68  0.9984
438.69  0.9981
438.70  0.9979
438.71  0.9981
438.72  0.9983
438.73  0.9988
438.74  0.9994
438.75  1.0000
438.76  0.9997
438.77  0.9994
438.78  0.9990
438.79  0.9987
438.80  0.9984
438.81  0.9985
438.82  0.9985
438.83  0.9990
438.84  0.9994
438.85  1.0000
438.86  0.9996
438.87  0.9993
438.88  0.9989
438.89  0.9985
438.90  0.9982
438.91  0.9981
438.92  0.9981
438.93  0.9985
438.94  0.9988
438.95  0.9993
438.96  0.9990
438.97  0.9986
438.98  0.9982
438.99  0.9979
439.00  0.9975
439.01  0.9974
439.02  0.9972
439.03  0.9975
439.04  0.9978
439.05  0.9982
439.06  0.9979
439.07  0.9975
439.08  0.9972
439.09  0.9969
439.10  0.9965
439.11  0.9963
439.12  0.9961
439.13  0.9963
439.14  0.9965
439.15  0.9968
439.16  0.9966
439.17  0.9963
439.18  0.9960
439.19  0.9958
439.20  0.9955
439.21  0.9952
439.22  0.9949
439.23  0.9950
439.24  0.9951
439.25  0.9954
439.26  0.9952
439.27  0.9950
439.28  0.9948
439.29  0.9947
439.30  0.9945
439.31  0.9941
439.32  0.9938
439.33  0.9938
439.34  0.9937
439.35  0.9940
439.36  0.9939
439.37  0.9938
439.38  0.9937
439.39  0.9936
439.40  0.9936
439.41  0.9932
439.42  0.9928
439.43  0.9926
439.44  0.9925
439.45  0.9927
439.46  0.9927
439.47  0.9927
439.48  0.9927
439.49  0.9933
439.50  0.9934
439.51  0.9930
439.52  0.9925
439.53  0.9923
439.54  0.9921
439.55  0.9923
439.56  0.9924
439.57  0.9926
439.58  0.9927
439.59  0.9928
439.60  0.9930
439.61  0.9925
439.62  0.9921
439.63  0.9918
439.64  0.9915
439.65  0.9916
439.66  0.9918
439.67  0.9920
439.68  0.9922
439.69  0.9925
439.70  0.9927
439.71  0.9922
439.72  0.9917
439.73  0.9913
439.74  0.9910
439.75  0.9910
439.76  0.9913
439.77  0.9916
439.78  0.9918
439.79  0.9921
439.80  0.9924
439.81  0.9919
439.82  0.9914
439.83  0.9909
439.84  0.9905
439.85  0.9905
439.86  0.9908
439.87  0.9911
439.88  0.9915
439.89  0.9918
439.90  0.9921
439.91  0.9916
439.92  0.9910
439.93  0.9906
439.94  0.9901
439.95  0.9900
439.96  0.9904
439.97  0.9907
439.98  0.9910
439.99  0.9913
440.00  0.9917
440.01  0.9911
440.02  0.9906
440.03  0.9901
440.04  0.9896
440.05  0.9895
440.06  0.9898
440.07  0.9901
440.08  0.9904
440.09  0.9907
440.10  0.9911
440.11  0.9906
440.12  0.9900
440.13  0.9895
440.14  0.9891
440.15  0.9889
440.16  0.9892
440.17  0.9894
440.18  0.9897
440.19  0.9899
440.20  0.9903
440.21  0.9898
440.22  0.9893
440.23  0.9889
440.24  0.9884
440.25  0.9882
440.26  0.9884
440.27  0.9886
440.28  0.9888
440.29  0.9890
440.30  0.9893
440.31  0.9889
440.32  0.9885
440.33  0.9881
440.34  0.9877
440.35  0.9875
440.36  0.9876
440.37  0.9877
440.38  0.9878
440.39  0.9880
440.40  0.9883
440.41  0.9879
440.42  0.9876
440.43  0.9873
440.44  0.9870
440.45  0.9867
440.46  0.9867
440.47  0.9868
440.48  0.9868
440.49  0.9868
440.50  0.9871
440.51  0.9869
440.52  0.9867
440.53  0.9859
440.54  0.9857
440.55  0.9853
440.56  0.9853
440.57  0.9853
440.58  0.9852
440.59  0.9852
440.60  0.9854
440.61  0.9854
440.62  0.9853
440.63  0.9852
440.64  0.9851
440.65  0.9847
440.66  0.9846
440.67  0.9844
440.68  0.9843
440.69  0.9842
440.70  0.9843
440.71  0.9843
440.72  0.9850
440.73  0.9850
440.74  0.9851
440.75  0.9846
440.76  0.9844
440.77  0.9842
440.78  0.9840
440.79  0.9838
440.80  0.9840
440.81  0.9841
440.82  0.9842
440.83  0.9844
440.84  0.9845
440.85  0.9841
440.86  0.9838
440.87  0.9835
440.88  0.9832
440.89  0.9829
440.90  0.9830
440.91  0.9832
440.92  0.9834
440.93  0.9837
440.94  0.9839
440.95  0.9834
440.96  0.9830
440.97  0.9827
440.98  0.9823
440.99  0.9820
441.00  0.9820
441.01  0.9823
441.02  0.9825
441.03  0.9828
441.04  0.9832
441.05  0.9826
441.06  0.9822
441.07  0.9818
441.08  0.9814
441.09  0.9809
441.10  0.9809
441.11  0.9812
441.12  0.9815
441.13  0.9819
441.14  0.9822
441.15  0.9817
441.16  0.9812
441.17  0.9808
441.18  0.9803
441.19  0.9799
441.20  0.9798
441.21  0.9801
441.22  0.9804
441.23  0.9808
441.24  0.9812
441.25  0.9806
441.26  0.9801
441.27  0.9797
441.28  0.9792
441.29  0.9787
441.30  0.9786
441.31  0.9789
441.32  0.9792
441.33  0.9795
441.34  0.9799
441.35  0.9794
441.36  0.9789
441.37  0.9784
441.38  0.9780
441.39  0.9775
441.40  0.9773
441.41  0.9776
441.42  0.9778
441.43  0.9782
441.44  0.9785
441.45  0.9781
441.46  0.9776
441.47  0.9772
441.48  0.9767
441.49  0.9763
441.50  0.9761
441.51  0.9763
441.52  0.9764
441.53  0.9768
441.54  0.9771
441.55  0.9767
441.56  0.9763
441.57  0.9759
441.58  0.9755
441.59  0.9752
441.60  0.9749
441.61  0.9750
441.62  0.9751
441.63  0.9754
441.64  0.9757
441.65  0.9754
441.66  0.9751
441.67  0.9748
441.68  0.9745
441.69  0.9742
441.70  0.9739
441.71  0.9739
441.72  0.9739
441.73  0.9742
441.74  0.9744
441.75  0.9742
441.76  0.9734
441.77  0.9732
441.78  0.9731
441.79  0.9729
441.80  0.9725
441.81  0.9725
441.82  0.9725
441.83  0.9727
441.84  0.9729
441.85  0.9728
441.86  0.9727
441.87  0.9727
441.88  0.9726
441.89  0.9725
441.90  0.9721
441.91  0.9719
441.92  0.9718
441.93  0.9720
441.94  0.9721
441.95  0.9721
441.96  0.9722
441.97  0.9728
441.98  0.9728
441.99  0.9728
442.00  0.9724
442.01  0.9722
442.02  0.9720
442.03  0.9722
442.04  0.9723
442.05  0.9724
442.06  0.9725
442.07  0.9727
442.08  0.9728
442.09  0.9730
442.10  0.9725
442.11  0.9722
442.12  0.9719
442.13  0.9720
442.14  0.9721
442.15  0.9723
442.16  0.9725
442.17  0.9727
442.18  0.9730
442.19  0.9732
442.20  0.9727
442.21  0.9723
442.22  0.9720
442.23  0.9720
442.24  0.9720
442.25  0.9723
442.26  0.9726
442.27  0.9728
442.28  0.9731
442.29  0.9734
442.30  0.9729
442.31  0.9725
442.32  0.9721
442.33  0.9721
442.34  0.9720
442.35  0.9723
442.36  0.9726
442.37  0.9729
442.38  0.9733
442.39  0.9736
442.40  0.9731
442.41  0.9726
442.42  0.9722
442.43  0.9721
442.44  0.9720
442.45  0.9723
442.46  0.9726
442.47  0.9729
442.48  0.9733
442.49  0.9737
442.50  0.9731
442.51  0.9726
442.52  0.9722
442.53  0.9721
442.54  0.9719
442.55  0.9722
442.56  0.9725
442.57  0.9728
442.58  0.9732
442.59  0.9735
442.60  0.9730
442.61  0.9725
442.62  0.9720
442.63  0.9719
442.64  0.9717
442.65  0.9720
442.66  0.9722
442.67  0.9724
442.68  0.9728
442.69  0.9731
442.70  0.9727
442.71  0.9722
442.72  0.9718
442.73  0.9716
442.74  0.9713
442.75  0.9715
442.76  0.9717
442.77  0.9719
442.78  0.9722
442.79  0.9725
442.80  0.9721
442.81  0.9717
442.82  0.9714
442.83  0.9711
442.84  0.9708
442.85  0.9709
442.86  0.9710
442.87  0.9712
442.88  0.9714
442.89  0.9717
442.90  0.9714
442.91  0.9711
442.92  0.9708
442.93  0.9705
442.94  0.9702
442.95  0.9702
442.96  0.9702
442.97  0.9702
442.98  0.9705
442.99  0.9707
443.00  0.9705
443.01  0.9698
443.02  0.9697
443.03  0.9695
443.04  0.9692
443.05  0.9693
443.06  0.9693
443.07  0.9693
443.08  0.9696
443.09  0.9699
443.10  0.9699
443.11  0.9699
443.12  0.9699
443.13  0.9696
443.14  0.9693
443.15  0.9692
443.16  0.9692
443.17  0.9691
443.18  0.9694
443.19  0.9696
443.20  0.9697
443.21  0.9704
443.22  0.9705
443.23  0.9702
443.24  0.9698
443.25  0.9697
443.26  0.9696
443.27  0.9695
443.28  0.9697
443.29  0.9699
443.30  0.9701
443.31  0.9703
443.32  0.9705
443.33  0.9702
443.34  0.9698
443.35  0.9696
443.36  0.9694
443.37  0.9692
443.38  0.9693
443.39  0.9695
443.40  0.9698
443.41  0.9701
443.42  0.9704
443.43  0.9700
443.44  0.9696
443.45  0.9693
443.46  0.9690
443.47  0.9687
443.48  0.9689
443.49  0.9690
443.50  0.9693
443.51  0.9697
443.52  0.9701
443.53  0.9696
443.54  0.9692
443.55  0.9688
443.56  0.9685
443.57  0.9682
443.58  0.9682
443.59  0.9683
443.60  0.9687
443.61  0.9691
443.62  0.9695
443.63  0.9690
443.64  0.9686
443.65  0.9682
443.66  0.9678
443.67  0.9674
443.68  0.9674
443.69  0.9675
443.70  0.9679
443.71  0.9682
443.72  0.9687
443.73  0.9682
443.74  0.9678
443.75  0.9674
443.76  0.9670
443.77  0.9666
443.78  0.9665
443.79  0.9665
443.80  0.9669
443.81  0.9672
443.82  0.9677
443.83  0.9673
443.84  0.9668
443.85  0.9664
443.86  0.9660
443.87  0.9657
443.88  0.9656
443.89  0.9655
443.90  0.9658
443.91  0.9661
443.92  0.9666
443.93  0.9662
443.94  0.9658
443.95  0.9654
443.96  0.9651
443.97  0.9647
443.98  0.9646
443.99  0.9644
444.00  0.9647
444.01  0.9650
444.02  0.9654
444.03  0.9651
444.04  0.9647
444.05  0.9644
444.06  0.9641
444.07  0.9638
444.08  0.9637
444.09  0.9635
444.10  0.9637
444.11  0.9639
444.12  0.9642
444.13  0.9640
444.14  0.9638
444.15  0.9635
444.16  0.9633
444.17  0.9631
444.18  0.9629
444.19  0.9626
444.20  0.9627
444.21  0.9629
444.22  0.9632
444.23  0.9630
444.24  0.9629
444.25  0.9622
444.26  0.9621
444.27  0.9620
444.28  0.9618
444.29  0.9615
444.30  0.9616
444.31  0.9616
444.32  0.9619
444.33  0.9619
444.34  0.9619
444.35  0.9619
444.36  0.9619
444.37  0.9619
444.38  0.9616
444.39  0.9612
444.40  0.9612
444.41  0.9611
444.42  0.9614
444.43  0.9615
444.44  0.9615
444.45  0.9616
444.46  0.9617
444.47  0.9618
444.48  0.9614
444.49  0.9611
444.50  0.9609
444.51  0.9608
444.52  0.9609
444.53  0.9611
444.54  0.9613
444.55  0.9615
444.56  0.9616
444.57  0.9618
444.58  0.9614
444.59  0.9609
444.60  0.9607
444.61  0.9604
444.62  0.9606
444.63  0.9608
444.64  0.9610
444.65  0.9613
444.66  0.9615
444.67  0.9617
444.68  0.9612
444.69  0.9607
444.70  0.9604
444.71  0.9600
444.72  0.9601
444.73  0.9604
444.74  0.9606
444.75  0.9609
444.76  0.9612
444.77  0.9614
444.78  0.9609
444.79  0.9603
444.80  0.9599
444.81  0.9594
444.82  0.9594
444.83  0.9597
444.84  0.9599
444.85  0.9602
444.86  0.9605
444.87  0.9607
444.88  0.9601
444.89  0.9595
444.90  0.9590
444.91  0.9584
444.92  0.9583
444.93  0.9585
444.94  0.9587
444.95  0.9590
444.96  0.9592
444.97  0.9594
444.98  0.9587
444.99  0.9580
445.00  0.9574
445.01  0.9568
445.02  0.9565
445.03  0.9567
445.04  0.9568
445.05  0.9570
445.06  0.9571
445.07  0.9572
445.08  0.9565
445.09  0.9558
445.10  0.9551
445.11  0.9544
445.12  0.9540
445.13  0.9540
445.14  0.9540
445.15  0.9540
445.16  0.9540
445.17  0.9540
445.18  0.9532
445.19  0.9524
445.20  0.9516
445.21  0.9509
445.22  0.9503
445.23  0.9501
445.24  0.9500
445.25  0.9498
445.26  0.9497
445.27  0.9495
445.28  0.9486
445.29  0.9477
445.30  0.9469
445.31  0.9460
445.32  0.9453
445.33  0.9449
445.34  0.9445
445.35  0.9442
445.36  0.9438
445.37  0.9434
445.38  0.9424
445.39  0.9415
445.40  0.9405
445.41  0.9395
445.42  0.9386
445.43  0.9379
445.44  0.9373
445.45  0.9367
445.46  0.9360
445.47  0.9354
445.48  0.9343
445.49  0.9332
445.50  0.9316
445.51  0.9305
445.52  0.9293
445.53  0.9284
445.54  0.9275
445.55  0.9265
445.56  0.9256
445.57  0.9247
445.58  0.9235
445.59  0.9223
445.60  0.9210
445.61  0.9198
445.62  0.9183
445.63  0.9170
445.64  0.9157
445.65  0.9145
445.66  0.9132
445.67  0.9119
445.68  0.9105
445.69  0.9091
445.70  0.9076
445.71  0.9062
445.72  0.9043
445.73  0.9027
445.74  0.9010
445.75  0.8993
445.76  0.8976
445.77  0.8960
445.78  0.8943
445.79  0.8926
445.80  0.8909
445.81  0.8892
445.82  0.8869
445.83  0.8848
445.84  0.8827
445.85  0.8806
445.86  0.8785
445.87  0.8764
445.88  0.8744
445.89  0.8724
445.90  0.8704
445.91  0.8684
445.92  0.8657
445.93  0.8631
445.94  0.8605
445.95  0.8580
445.96  0.8554
445.97  0.8528
445.98  0.8504
445.99  0.8481
446.00  0.8457
446.01  0.8434
446.02  0.8402
446.03  0.8371
446.04  0.8341
446.05  0.8310
446.06  0.8279
446.07  0.8248
446.08  0.8221
446.09  0.8193
446.10  0.8166
446.11  0.8138
446.12  0.8102
446.13  0.8066
446.14  0.8030
446.15  0.7995
446.16  0.7959
446.17  0.7923
446.18  0.7891
446.19  0.7860
446.20  0.7828
446.21  0.7796
446.22  0.7754
446.23  0.7714
446.24  0.7674
446.25  0.7633
446.26  0.7593
446.27  0.7553
446.28  0.7516
446.29  0.7480
446.30  0.7443
446.31  0.7407
446.32  0.7361
446.33  0.7317
446.34  0.7272
446.35  0.7227
446.36  0.7182
446.37  0.7137
446.38  0.7097
446.39  0.7056
446.40  0.7015
446.41  0.6974
446.42  0.6925
446.43  0.6877
446.44  0.6828
446.45  0.6779
446.46  0.6731
446.47  0.6682
446.48  0.6637
446.49  0.6592
446.50  0.6548
446.51  0.6503
446.52  0.6451
446.53  0.6399
446.54  0.6347
446.55  0.6296
446.56  0.6244
446.57  0.6192
446.58  0.6144
446.59  0.6096
446.60  0.6048
446.61  0.6000
446.62  0.5946
446.63  0.5892
446.64  0.5838
446.65  0.5784
446.66  0.5730
446.67  0.5677
446.68  0.5626
446.69  0.5576
446.70  0.5525
446.71  0.5475
446.72  0.5419
446.73  0.5359
446.74  0.5304
446.75  0.5249
446.76  0.5194
446.77  0.5140
446.78  0.5088
446.79  0.5036
446.80  0.4984
446.81  0.4933
446.82  0.4878
446.83  0.4823
446.84  0.4768
446.85  0.4713
446.86  0.4658
446.87  0.4603
446.88  0.4551
446.89  0.4499
446.90  0.4447
446.91  0.4394
446.92  0.4341
446.93  0.4287
446.94  0.4233
446.95  0.4179
446.96  0.4125
446.97  0.4071
446.98  0.4020
446.99  0.3968
447.00  0.3917
447.01  0.3865
447.02  0.3813
447.03  0.3761
447.04  0.3710
447.05  0.3658
447.06  0.3606
447.07  0.3554
447.08  0.3504
447.09  0.3455
447.10  0.3405
447.11  0.3355
447.12  0.3306
447.13  0.3257
447.14  0.3208
447.15  0.3159
447.16  0.3111
447.17  0.3062
447.18  0.3015
447.19  0.2967
447.20  0.2920
447.21  0.2872
447.22  0.2827
447.23  0.2782
447.24  0.2737
447.25  0.2692
447.26  0.2647
447.27  0.2602
447.28  0.2558
447.29  0.2514
447.30  0.2470
447.31  0.2426
447.32  0.2385
447.33  0.2344
447.34  0.2303
447.35  0.2262
447.36  0.2221
447.37  0.2180
447.38  0.2140
447.39  0.2100
447.40  0.2060
447.41  0.2020
447.42  0.1983
447.43  0.1947
447.44  0.1911
447.45  0.1874
447.46  0.1838
447.47  0.1801
447.48  0.1765
447.49  0.1730
447.50  0.1694
447.51  0.1658
447.52  0.1626
447.53  0.1594
447.54  0.1563
447.55  0.1531
447.56  0.1499
447.57  0.1467
447.58  0.1436
447.59  0.1404
447.60  0.1373
447.61  0.1342
447.62  0.1314
447.63  0.1287
447.64  0.1260
447.65  0.1232
447.66  0.1205
447.67  0.1178
447.68  0.1151
447.69  0.1124
447.70  0.1097
447.71  0.1070
447.72  0.1047
447.73  0.1024
447.74  0.1001
447.75  0.0978
447.76  0.0955
447.77  0.0932
447.78  0.0909
447.79  0.0886
447.80  0.0863
447.81  0.0840
447.82  0.0821
447.83  0.0802
447.84  0.0783
447.85  0.0764
447.86  0.0745
447.87  0.0726
447.88  0.0707
447.89  0.0688
447.90  0.0669
447.91  0.0651
447.92  0.0635
447.93  0.0620
447.94  0.0604
447.95  0.0589
447.96  0.0573
447.97  0.0558
447.98  0.0537
447.99  0.0521
448.00  0.0506
448.01  0.0491
448.02  0.0479
448.03  0.0467
448.04  0.0455
448.05  0.0443
448.06  0.0430
448.07  0.0418
448.08  0.0406
448.09  0.0394
448.10  0.0382
448.11  0.0370
448.12  0.0360
448.13  0.0350
448.14  0.0341
448.15  0.0331
448.16  0.0322
448.17  0.0312
448.18  0.0303
448.19  0.0293
448.20  0.0283
448.21  0.0274
448.22  0.0267
448.23  0.0259
448.24  0.0252
448.25  0.0244
448.26  0.0237
448.27  0.0230
448.28  0.0222
448.29  0.0215
448.30  0.0207
448.31  0.0200
448.32  0.0194
448.33  0.0189
448.34  0.0183
448.35  0.0177
448.36  0.0172
448.37  0.0166
448.38  0.0161
448.39  0.0155
448.40  0.0149
448.41  0.0144
448.42  0.0139
448.43  0.0135
448.44  0.0131
448.45  0.0127
448.46  0.0123
448.47  0.0118
448.48  0.0114
448.49  0.0110
448.50  0.0106
448.51  0.0102
448.52  0.0099
448.53  0.0096
448.54  0.0092
448.55  0.0089
448.56  0.0086
448.57  0.0083
448.58  0.0080
448.59  0.0077
448.60  0.0074
448.61  0.0071
448.62  0.0069
448.63  0.0066
448.64  0.0064
448.65  0.0062
448.66  0.0060
448.67  0.0058
448.68  0.0055
448.69  0.0053
448.70  0.0051
448.71  0.0049
448.72  0.0047
448.73  0.0045
448.74  0.0044
448.75  0.0042
448.76  0.0041
448.77  0.0039
448.78  0.0038
448.79  0.0036
448.80  0.0034
448.81  0.0033
448.82  0.0032
448.83  0.0031
448.84  0.0030
448.85  0.0028
448.86  0.0027
448.87  0.0026
448.88  0.0025
448.89  0.0024
448.90  0.0023
448.91  0.0022
448.92  0.0021
448.93  0.0020
448.94  0.0020
448.95  0.0019
448.96  0.0018
448.97  0.0017
448.98  0.0017
448.99  0.0016
449.00  0.0015
449.01  0.0014
449.02  0.0014
449.03  0.0013
449.04  0.0013
449.05  0.0012
449.06  0.0012
449.07  0.0011
449.08  0.0011
449.09  0.0010
449.10  0.0010
449.11  0.0009
449.12  0.0009
449.13  0.0009
449.14  0.0008
449.15  0.0008
449.16  0.0008
449.17  0.0007
449.18  0.0007
449.19  0.0007
449.20  0.0006
449.21  0.0006
