# Provided by ESA in 10/2012
# Important Notes:
# The data contained here correspond to the OLCI Spectral Model CDR derived in 2011.
# The data have been calculated for the camera 4, pointing nadir.
747.64  0.0006
747.65  0.0006
747.66  0.0007
747.67  0.0007
747.68  0.0008
747.69  0.0008
747.70  0.0008
747.71  0.0009
747.72  0.0009
747.73  0.0009
747.74  0.0010
747.75  0.0010
747.76  0.0011
747.77  0.0011
747.78  0.0012
747.79  0.0012
747.80  0.0013
747.81  0.0013
747.82  0.0014
747.83  0.0014
747.84  0.0015
747.85  0.0016
747.86  0.0016
747.87  0.0017
747.88  0.0018
747.89  0.0019
747.90  0.0020
747.91  0.0020
747.92  0.0021
747.93  0.0022
747.94  0.0023
747.95  0.0024
747.96  0.0025
747.97  0.0026
747.98  0.0027
747.99  0.0028
748.00  0.0030
748.01  0.0031
748.02  0.0032
748.03  0.0033
748.04  0.0034
748.05  0.0036
748.06  0.0037
748.07  0.0039
748.08  0.0041
748.09  0.0042
748.10  0.0044
748.11  0.0046
748.12  0.0047
748.13  0.0049
748.14  0.0050
748.15  0.0053
748.16  0.0055
748.17  0.0057
748.18  0.0060
748.19  0.0062
748.20  0.0064
748.21  0.0067
748.22  0.0069
748.23  0.0071
748.24  0.0074
748.25  0.0077
748.26  0.0080
748.27  0.0083
748.28  0.0086
748.29  0.0090
748.30  0.0093
748.31  0.0096
748.32  0.0099
748.33  0.0102
748.34  0.0106
748.35  0.0110
748.36  0.0114
748.37  0.0119
748.38  0.0123
748.39  0.0127
748.40  0.0132
748.41  0.0136
748.42  0.0140
748.43  0.0145
748.44  0.0149
748.45  0.0155
748.46  0.0161
748.47  0.0167
748.48  0.0172
748.49  0.0178
748.50  0.0184
748.51  0.0190
748.52  0.0196
748.53  0.0202
748.54  0.0207
748.55  0.0215
748.56  0.0223
748.57  0.0231
748.58  0.0238
748.59  0.0246
748.60  0.0254
748.61  0.0261
748.62  0.0269
748.63  0.0277
748.64  0.0284
748.65  0.0294
748.66  0.0304
748.67  0.0314
748.68  0.0324
748.69  0.0334
748.70  0.0344
748.71  0.0354
748.72  0.0364
748.73  0.0374
748.74  0.0384
748.75  0.0396
748.76  0.0409
748.77  0.0421
748.78  0.0434
748.79  0.0447
748.80  0.0459
748.81  0.0472
748.82  0.0485
748.83  0.0497
748.84  0.0510
748.85  0.0525
748.86  0.0541
748.87  0.0557
748.88  0.0573
748.89  0.0594
748.90  0.0611
748.91  0.0627
748.92  0.0643
748.93  0.0659
748.94  0.0675
748.95  0.0694
748.96  0.0714
748.97  0.0734
748.98  0.0753
748.99  0.0773
749.00  0.0793
749.01  0.0812
749.02  0.0832
749.03  0.0852
749.04  0.0872
749.05  0.0895
749.06  0.0919
749.07  0.0943
749.08  0.0966
749.09  0.0990
749.10  0.1014
749.11  0.1038
749.12  0.1062
749.13  0.1086
749.14  0.1110
749.15  0.1138
749.16  0.1166
749.17  0.1194
749.18  0.1222
749.19  0.1250
749.20  0.1278
749.21  0.1306
749.22  0.1335
749.23  0.1363
749.24  0.1391
749.25  0.1424
749.26  0.1457
749.27  0.1489
749.28  0.1522
749.29  0.1554
749.30  0.1587
749.31  0.1620
749.32  0.1653
749.33  0.1687
749.34  0.1720
749.35  0.1757
749.36  0.1794
749.37  0.1831
749.38  0.1868
749.39  0.1905
749.40  0.1943
749.41  0.1981
749.42  0.2019
749.43  0.2057
749.44  0.2095
749.45  0.2136
749.46  0.2178
749.47  0.2219
749.48  0.2261
749.49  0.2303
749.50  0.2345
749.51  0.2388
749.52  0.2430
749.53  0.2473
749.54  0.2515
749.55  0.2561
749.56  0.2606
749.57  0.2652
749.58  0.2698
749.59  0.2744
749.60  0.2790
749.61  0.2837
749.62  0.2884
749.63  0.2931
749.64  0.2978
749.65  0.3027
749.66  0.3076
749.67  0.3125
749.68  0.3175
749.69  0.3224
749.70  0.3274
749.71  0.3325
749.72  0.3376
749.73  0.3426
749.74  0.3477
749.75  0.3529
749.76  0.3581
749.77  0.3633
749.78  0.3685
749.79  0.3736
749.80  0.3790
749.81  0.3844
749.82  0.3898
749.83  0.3951
749.84  0.4005
749.85  0.4059
749.86  0.4112
749.87  0.4166
749.88  0.4220
749.89  0.4273
749.90  0.4329
749.91  0.4385
749.92  0.4441
749.93  0.4497
749.94  0.4553
749.95  0.4607
749.96  0.4661
749.97  0.4716
749.98  0.4770
749.99  0.4824
750.00  0.4881
750.01  0.4938
750.02  0.4995
750.03  0.5052
750.04  0.5109
750.05  0.5163
750.06  0.5217
750.07  0.5270
750.08  0.5324
750.09  0.5378
750.10  0.5435
750.11  0.5492
750.12  0.5549
750.13  0.5606
750.14  0.5669
750.15  0.5721
750.16  0.5774
750.17  0.5826
750.18  0.5878
750.19  0.5931
750.20  0.5987
750.21  0.6043
750.22  0.6099
750.23  0.6155
750.24  0.6211
750.25  0.6261
750.26  0.6311
750.27  0.6361
750.28  0.6411
750.29  0.6460
750.30  0.6514
750.31  0.6568
750.32  0.6622
750.33  0.6675
750.34  0.6729
750.35  0.6776
750.36  0.6822
750.37  0.6869
750.38  0.6915
750.39  0.6962
750.40  0.7012
750.41  0.7063
750.42  0.7113
750.43  0.7164
750.44  0.7214
750.45  0.7257
750.46  0.7299
750.47  0.7342
750.48  0.7384
750.49  0.7426
750.50  0.7473
750.51  0.7519
750.52  0.7566
750.53  0.7613
750.54  0.7659
750.55  0.7697
750.56  0.7735
750.57  0.7773
750.58  0.7811
750.59  0.7849
750.60  0.7891
750.61  0.7933
750.62  0.7975
750.63  0.8017
750.64  0.8059
750.65  0.8092
750.66  0.8125
750.67  0.8158
750.68  0.8191
750.69  0.8225
750.70  0.8262
750.71  0.8299
750.72  0.8336
750.73  0.8373
750.74  0.8410
750.75  0.8439
750.76  0.8467
750.77  0.8496
750.78  0.8525
750.79  0.8553
750.80  0.8585
750.81  0.8617
750.82  0.8649
750.83  0.8681
750.84  0.8713
750.85  0.8737
750.86  0.8762
750.87  0.8786
750.88  0.8811
750.89  0.8835
750.90  0.8862
750.91  0.8889
750.92  0.8916
750.93  0.8943
750.94  0.8970
750.95  0.8990
750.96  0.9011
750.97  0.9032
750.98  0.9053
750.99  0.9073
751.00  0.9095
751.01  0.9117
751.02  0.9139
751.03  0.9161
751.04  0.9183
751.05  0.9201
751.06  0.9218
751.07  0.9236
751.08  0.9253
751.09  0.9271
751.10  0.9288
751.11  0.9306
751.12  0.9323
751.13  0.9340
751.14  0.9358
751.15  0.9373
751.16  0.9388
751.17  0.9402
751.18  0.9417
751.19  0.9432
751.20  0.9445
751.21  0.9459
751.22  0.9472
751.23  0.9485
751.24  0.9498
751.25  0.9511
751.26  0.9524
751.27  0.9537
751.28  0.9549
751.29  0.9562
751.30  0.9572
751.31  0.9581
751.32  0.9591
751.33  0.9600
751.34  0.9610
751.35  0.9621
751.36  0.9632
751.37  0.9643
751.38  0.9654
751.39  0.9671
751.40  0.9678
751.41  0.9684
751.42  0.9691
751.43  0.9698
751.44  0.9704
751.45  0.9714
751.46  0.9724
751.47  0.9734
751.48  0.9744
751.49  0.9754
751.50  0.9758
751.51  0.9762
751.52  0.9766
751.53  0.9770
751.54  0.9774
751.55  0.9783
751.56  0.9792
751.57  0.9801
751.58  0.9810
751.59  0.9819
751.60  0.9821
751.61  0.9822
751.62  0.9824
751.63  0.9826
751.64  0.9827
751.65  0.9835
751.66  0.9843
751.67  0.9852
751.68  0.9860
751.69  0.9868
751.70  0.9868
751.71  0.9868
751.72  0.9868
751.73  0.9867
751.74  0.9867
751.75  0.9875
751.76  0.9882
751.77  0.9889
751.78  0.9897
751.79  0.9904
751.80  0.9902
751.81  0.9901
751.82  0.9900
751.83  0.9898
751.84  0.9897
751.85  0.9903
751.86  0.9910
751.87  0.9916
751.88  0.9923
751.89  0.9929
751.90  0.9927
751.91  0.9924
751.92  0.9922
751.93  0.9920
751.94  0.9918
751.95  0.9923
751.96  0.9929
751.97  0.9934
751.98  0.9940
751.99  0.9945
752.00  0.9943
752.01  0.9940
752.02  0.9937
752.03  0.9935
752.04  0.9932
752.05  0.9936
752.06  0.9941
752.07  0.9946
752.08  0.9950
752.09  0.9955
752.10  0.9952
752.11  0.9950
752.12  0.9947
752.13  0.9944
752.14  0.9941
752.15  0.9945
752.16  0.9949
752.17  0.9952
752.18  0.9956
752.19  0.9960
752.20  0.9957
752.21  0.9955
752.22  0.9953
752.23  0.9950
752.24  0.9948
752.25  0.9950
752.26  0.9953
752.27  0.9956
752.28  0.9958
752.29  0.9961
752.30  0.9959
752.31  0.9958
752.32  0.9956
752.33  0.9954
752.34  0.9952
752.35  0.9954
752.36  0.9956
752.37  0.9957
752.38  0.9959
752.39  0.9961
752.40  0.9960
752.41  0.9959
752.42  0.9958
752.43  0.9957
752.44  0.9956
752.45  0.9957
752.46  0.9957
752.47  0.9958
752.48  0.9959
752.49  0.9959
752.50  0.9959
752.51  0.9960
752.52  0.9960
752.53  0.9960
752.54  0.9960
752.55  0.9959
752.56  0.9959
752.57  0.9959
752.58  0.9958
752.59  0.9958
752.60  0.9959
752.61  0.9960
752.62  0.9961
752.63  0.9962
752.64  0.9969
752.65  0.9968
752.66  0.9967
752.67  0.9966
752.68  0.9965
752.69  0.9964
752.70  0.9966
752.71  0.9968
752.72  0.9971
752.73  0.9973
752.74  0.9975
752.75  0.9973
752.76  0.9971
752.77  0.9970
752.78  0.9968
752.79  0.9966
752.80  0.9969
752.81  0.9972
752.82  0.9975
752.83  0.9978
752.84  0.9981
752.85  0.9979
752.86  0.9976
752.87  0.9973
752.88  0.9971
752.89  0.9968
752.90  0.9972
752.91  0.9975
752.92  0.9979
752.93  0.9983
752.94  0.9987
752.95  0.9983
752.96  0.9980
752.97  0.9977
752.98  0.9973
752.99  0.9970
753.00  0.9974
753.01  0.9978
753.02  0.9982
753.03  0.9986
753.04  0.9991
753.05  0.9987
753.06  0.9983
753.07  0.9979
753.08  0.9976
753.09  0.9972
753.10  0.9976
753.11  0.9980
753.12  0.9984
753.13  0.9988
753.14  0.9993
753.15  0.9989
753.16  0.9985
753.17  0.9981
753.18  0.9977
753.19  0.9973
753.20  0.9977
753.21  0.9981
753.22  0.9985
753.23  0.9989
753.24  0.9993
753.25  0.9989
753.26  0.9985
753.27  0.9981
753.28  0.9977
753.29  0.9973
753.30  0.9977
753.31  0.9980
753.32  0.9984
753.33  0.9987
753.34  0.9991
753.35  0.9987
753.36  0.9984
753.37  0.9980
753.38  0.9977
753.39  0.9973
753.40  0.9976
753.41  0.9979
753.42  0.9982
753.43  0.9985
753.44  0.9988
753.45  0.9985
753.46  0.9982
753.47  0.9979
753.48  0.9976
753.49  0.9973
753.50  0.9975
753.51  0.9977
753.52  0.9979
753.53  0.9981
753.54  0.9984
753.55  0.9981
753.56  0.9979
753.57  0.9977
753.58  0.9975
753.59  0.9973
753.60  0.9974
753.61  0.9976
753.62  0.9977
753.63  0.9978
753.64  0.9980
753.65  0.9972
753.66  0.9972
753.67  0.9971
753.68  0.9970
753.69  0.9969
753.70  0.9970
753.71  0.9970
753.72  0.9971
753.73  0.9971
753.74  0.9972
753.75  0.9972
753.76  0.9972
753.77  0.9972
753.78  0.9972
753.79  0.9973
753.80  0.9972
753.81  0.9972
753.82  0.9971
753.83  0.9971
753.84  0.9970
753.85  0.9972
753.86  0.9973
753.87  0.9974
753.88  0.9975
753.89  0.9982
753.90  0.9981
753.91  0.9980
753.92  0.9979
753.93  0.9978
753.94  0.9976
753.95  0.9979
753.96  0.9981
753.97  0.9983
753.98  0.9986
753.99  0.9988
754.00  0.9986
754.01  0.9984
754.02  0.9982
754.03  0.9980
754.04  0.9978
754.05  0.9981
754.06  0.9984
754.07  0.9987
754.08  0.9990
754.09  0.9993
754.10  0.9990
754.11  0.9987
754.12  0.9984
754.13  0.9982
754.14  0.9979
754.15  0.9982
754.16  0.9986
754.17  0.9990
754.18  0.9993
754.19  0.9997
754.20  0.9993
754.21  0.9990
754.22  0.9986
754.23  0.9983
754.24  0.9980
754.25  0.9983
754.26  0.9987
754.27  0.9991
754.28  0.9995
754.29  0.9999
754.30  0.9995
754.31  0.9992
754.32  0.9988
754.33  0.9984
754.34  0.9980
754.35  0.9984
754.36  0.9988
754.37  0.9992
754.38  0.9996
754.39  1.0000
754.40  0.9996
754.41  0.9992
754.42  0.9988
754.43  0.9984
754.44  0.9980
754.45  0.9983
754.46  0.9987
754.47  0.9991
754.48  0.9995
754.49  0.9999
754.50  0.9995
754.51  0.9991
754.52  0.9987
754.53  0.9983
754.54  0.9979
754.55  0.9982
754.56  0.9985
754.57  0.9989
754.58  0.9992
754.59  0.9995
754.60  0.9992
754.61  0.9988
754.62  0.9984
754.63  0.9981
754.64  0.9977
754.65  0.9980
754.66  0.9983
754.67  0.9985
754.68  0.9988
754.69  0.9991
754.70  0.9988
754.71  0.9985
754.72  0.9982
754.73  0.9979
754.74  0.9975
754.75  0.9978
754.76  0.9980
754.77  0.9982
754.78  0.9984
754.79  0.9986
754.80  0.9983
754.81  0.9981
754.82  0.9979
754.83  0.9977
754.84  0.9974
754.85  0.9976
754.86  0.9977
754.87  0.9978
754.88  0.9979
754.89  0.9980
754.90  0.9973
754.91  0.9972
754.92  0.9971
754.93  0.9970
754.94  0.9969
754.95  0.9969
754.96  0.9970
754.97  0.9970
754.98  0.9971
754.99  0.9971
755.00  0.9971
755.01  0.9971
755.02  0.9971
755.03  0.9971
755.04  0.9971
755.05  0.9971
755.06  0.9970
755.07  0.9970
755.08  0.9969
755.09  0.9968
755.10  0.9969
755.11  0.9970
755.12  0.9971
755.13  0.9972
755.14  0.9973
755.15  0.9972
755.16  0.9970
755.17  0.9968
755.18  0.9967
755.19  0.9965
755.20  0.9967
755.21  0.9969
755.22  0.9971
755.23  0.9973
755.24  0.9974
755.25  0.9972
755.26  0.9969
755.27  0.9967
755.28  0.9964
755.29  0.9961
755.30  0.9964
755.31  0.9966
755.32  0.9969
755.33  0.9971
755.34  0.9974
755.35  0.9970
755.36  0.9966
755.37  0.9963
755.38  0.9959
755.39  0.9956
755.40  0.9958
755.41  0.9961
755.42  0.9964
755.43  0.9967
755.44  0.9970
755.45  0.9965
755.46  0.9961
755.47  0.9956
755.48  0.9951
755.49  0.9947
755.50  0.9950
755.51  0.9952
755.52  0.9955
755.53  0.9958
755.54  0.9961
755.55  0.9955
755.56  0.9950
755.57  0.9944
755.58  0.9939
755.59  0.9933
755.60  0.9936
755.61  0.9938
755.62  0.9940
755.63  0.9943
755.64  0.9945
755.65  0.9939
755.66  0.9932
755.67  0.9926
755.68  0.9919
755.69  0.9913
755.70  0.9915
755.71  0.9916
755.72  0.9918
755.73  0.9919
755.74  0.9920
755.75  0.9913
755.76  0.9906
755.77  0.9899
755.78  0.9892
755.79  0.9884
755.80  0.9884
755.81  0.9885
755.82  0.9885
755.83  0.9885
755.84  0.9885
755.85  0.9877
755.86  0.9869
755.87  0.9861
755.88  0.9853
755.89  0.9845
755.90  0.9843
755.91  0.9842
755.92  0.9840
755.93  0.9838
755.94  0.9837
755.95  0.9828
755.96  0.9819
755.97  0.9810
755.98  0.9801
755.99  0.9792
756.00  0.9788
756.01  0.9784
756.02  0.9780
756.03  0.9777
756.04  0.9773
756.05  0.9763
756.06  0.9753
756.07  0.9743
756.08  0.9733
756.09  0.9723
756.10  0.9716
756.11  0.9710
756.12  0.9703
756.13  0.9697
756.14  0.9690
756.15  0.9673
756.16  0.9662
756.17  0.9651
756.18  0.9640
756.19  0.9629
756.20  0.9620
756.21  0.9610
756.22  0.9601
756.23  0.9591
756.24  0.9582
756.25  0.9569
756.26  0.9556
756.27  0.9543
756.28  0.9531
756.29  0.9518
756.30  0.9505
756.31  0.9492
756.32  0.9478
756.33  0.9465
756.34  0.9452
756.35  0.9437
756.36  0.9422
756.37  0.9407
756.38  0.9393
756.39  0.9378
756.40  0.9360
756.41  0.9343
756.42  0.9326
756.43  0.9308
756.44  0.9291
756.45  0.9273
756.46  0.9256
756.47  0.9238
756.48  0.9221
756.49  0.9203
756.50  0.9181
756.51  0.9159
756.52  0.9138
756.53  0.9116
756.54  0.9094
756.55  0.9073
756.56  0.9052
756.57  0.9031
756.58  0.9011
756.59  0.8990
756.60  0.8963
756.61  0.8936
756.62  0.8910
756.63  0.8883
756.64  0.8856
756.65  0.8831
756.66  0.8807
756.67  0.8782
756.68  0.8758
756.69  0.8733
756.70  0.8702
756.71  0.8670
756.72  0.8638
756.73  0.8606
756.74  0.8574
756.75  0.8545
756.76  0.8516
756.77  0.8488
756.78  0.8459
756.79  0.8430
756.80  0.8393
756.81  0.8356
756.82  0.8319
756.83  0.8282
756.84  0.8245
756.85  0.8212
756.86  0.8178
756.87  0.8145
756.88  0.8112
756.89  0.8079
756.90  0.8037
756.91  0.7995
756.92  0.7952
756.93  0.7910
756.94  0.7868
756.95  0.7830
756.96  0.7793
756.97  0.7755
756.98  0.7717
756.99  0.7679
757.00  0.7632
757.01  0.7586
757.02  0.7539
757.03  0.7492
757.04  0.7446
757.05  0.7403
757.06  0.7361
757.07  0.7318
757.08  0.7276
757.09  0.7233
757.10  0.7183
757.11  0.7132
757.12  0.7081
757.13  0.7031
757.14  0.6980
757.15  0.6934
757.16  0.6887
757.17  0.6841
757.18  0.6794
757.19  0.6747
757.20  0.6694
757.21  0.6640
757.22  0.6586
757.23  0.6532
757.24  0.6478
757.25  0.6428
757.26  0.6378
757.27  0.6328
757.28  0.6278
757.29  0.6228
757.30  0.6172
757.31  0.6116
757.32  0.6060
757.33  0.6004
757.34  0.5948
757.35  0.5895
757.36  0.5842
757.37  0.5790
757.38  0.5737
757.39  0.5685
757.40  0.5622
757.41  0.5565
757.42  0.5508
757.43  0.5450
757.44  0.5393
757.45  0.5340
757.46  0.5286
757.47  0.5232
757.48  0.5178
757.49  0.5124
757.50  0.5067
757.51  0.5010
757.52  0.4953
757.53  0.4896
757.54  0.4838
757.55  0.4784
757.56  0.4730
757.57  0.4675
757.58  0.4621
757.59  0.4566
757.60  0.4510
757.61  0.4454
757.62  0.4398
757.63  0.4342
757.64  0.4286
757.65  0.4232
757.66  0.4179
757.67  0.4125
757.68  0.4071
757.69  0.4017
757.70  0.3964
757.71  0.3910
757.72  0.3856
757.73  0.3802
757.74  0.3748
757.75  0.3696
757.76  0.3644
757.77  0.3592
757.78  0.3540
757.79  0.3488
757.80  0.3437
757.81  0.3386
757.82  0.3335
757.83  0.3285
757.84  0.3234
757.85  0.3185
757.86  0.3135
757.87  0.3086
757.88  0.3037
757.89  0.2987
757.90  0.2940
757.91  0.2893
757.92  0.2846
757.93  0.2799
757.94  0.2752
757.95  0.2707
757.96  0.2661
757.97  0.2615
757.98  0.2569
757.99  0.2523
758.00  0.2481
758.01  0.2438
758.02  0.2395
758.03  0.2353
758.04  0.2310
758.05  0.2269
758.06  0.2227
758.07  0.2185
758.08  0.2143
758.09  0.2102
758.10  0.2064
758.11  0.2026
758.12  0.1988
758.13  0.1950
758.14  0.1912
758.15  0.1875
758.16  0.1837
758.17  0.1800
758.18  0.1763
758.19  0.1725
758.20  0.1692
758.21  0.1659
758.22  0.1626
758.23  0.1593
758.24  0.1560
758.25  0.1527
758.26  0.1494
758.27  0.1462
758.28  0.1429
758.29  0.1396
758.30  0.1368
758.31  0.1339
758.32  0.1311
758.33  0.1282
758.34  0.1254
758.35  0.1226
758.36  0.1198
758.37  0.1170
758.38  0.1142
758.39  0.1113
758.40  0.1090
758.41  0.1066
758.42  0.1042
758.43  0.1018
758.44  0.0994
758.45  0.0970
758.46  0.0946
758.47  0.0922
758.48  0.0899
758.49  0.0875
758.50  0.0855
758.51  0.0835
758.52  0.0815
758.53  0.0796
758.54  0.0776
758.55  0.0756
758.56  0.0736
758.57  0.0717
758.58  0.0697
758.59  0.0677
758.60  0.0661
758.61  0.0645
758.62  0.0629
758.63  0.0613
758.64  0.0597
758.65  0.0575
758.66  0.0559
758.67  0.0543
758.68  0.0527
758.69  0.0512
758.70  0.0499
758.71  0.0486
758.72  0.0474
758.73  0.0461
758.74  0.0448
758.75  0.0436
758.76  0.0423
758.77  0.0410
758.78  0.0398
758.79  0.0385
758.80  0.0375
758.81  0.0365
758.82  0.0355
758.83  0.0345
758.84  0.0335
758.85  0.0325
758.86  0.0315
758.87  0.0305
758.88  0.0295
758.89  0.0285
758.90  0.0278
758.91  0.0270
758.92  0.0262
758.93  0.0255
758.94  0.0247
758.95  0.0239
758.96  0.0231
758.97  0.0224
758.98  0.0216
758.99  0.0208
759.00  0.0202
759.01  0.0197
759.02  0.0191
759.03  0.0185
759.04  0.0179
759.05  0.0173
759.06  0.0167
759.07  0.0161
759.08  0.0156
759.09  0.0150
759.10  0.0145
759.11  0.0141
759.12  0.0137
759.13  0.0132
759.14  0.0128
759.15  0.0123
759.16  0.0119
759.17  0.0115
759.18  0.0110
759.19  0.0106
759.20  0.0103
759.21  0.0100
759.22  0.0096
759.23  0.0093
759.24  0.0090
759.25  0.0087
759.26  0.0083
759.27  0.0080
759.28  0.0077
759.29  0.0074
759.30  0.0072
759.31  0.0069
759.32  0.0067
759.33  0.0065
759.34  0.0062
759.35  0.0060
759.36  0.0058
759.37  0.0055
759.38  0.0053
759.39  0.0051
759.40  0.0049
759.41  0.0047
759.42  0.0046
759.43  0.0044
759.44  0.0042
759.45  0.0041
759.46  0.0039
759.47  0.0038
759.48  0.0036
759.49  0.0034
759.50  0.0033
759.51  0.0032
759.52  0.0031
759.53  0.0030
759.54  0.0029
759.55  0.0027
759.56  0.0026
759.57  0.0025
759.58  0.0024
759.59  0.0023
759.60  0.0022
759.61  0.0021
759.62  0.0020
759.63  0.0020
759.64  0.0019
759.65  0.0018
759.66  0.0017
759.67  0.0017
759.68  0.0016
759.69  0.0015
759.70  0.0014
759.71  0.0014
759.72  0.0013
759.73  0.0013
759.74  0.0012
759.75  0.0012
759.76  0.0011
759.77  0.0011
759.78  0.0010
759.79  0.0010
759.80  0.0009
759.81  0.0009
759.82  0.0009
759.83  0.0008
759.84  0.0008
759.85  0.0008
759.86  0.0007
759.87  0.0007
759.88  0.0006
759.89  0.0006
