# Provided by ESA in 10/2012
# Important Notes:
# The data contained here correspond to the OLCI Spectral Model CDR derived in 2011.
# The data have been calculated for the camera 4, pointing nadir.
757.64  0.0007
757.65  0.0007
757.66  0.0008
757.67  0.0008
757.68  0.0008
757.69  0.0009
757.70  0.0009
757.71  0.0009
757.72  0.0010
757.73  0.0010
757.74  0.0011
757.75  0.0011
757.76  0.0012
757.77  0.0012
757.78  0.0013
757.79  0.0013
757.80  0.0014
757.81  0.0015
757.82  0.0015
757.83  0.0016
757.84  0.0016
757.85  0.0017
757.86  0.0018
757.87  0.0019
757.88  0.0020
757.89  0.0021
757.90  0.0022
757.91  0.0022
757.92  0.0023
757.93  0.0024
757.94  0.0025
757.95  0.0026
757.96  0.0028
757.97  0.0029
757.98  0.0030
757.99  0.0031
758.00  0.0033
758.01  0.0034
758.02  0.0035
758.03  0.0036
758.04  0.0038
758.05  0.0039
758.06  0.0041
758.07  0.0043
758.08  0.0045
758.09  0.0047
758.10  0.0048
758.11  0.0050
758.12  0.0052
758.13  0.0054
758.14  0.0056
758.15  0.0058
758.16  0.0061
758.17  0.0063
758.18  0.0066
758.19  0.0068
758.20  0.0071
758.21  0.0073
758.22  0.0076
758.23  0.0078
758.24  0.0081
758.25  0.0085
758.26  0.0088
758.27  0.0092
758.28  0.0095
758.29  0.0099
758.30  0.0102
758.31  0.0106
758.32  0.0109
758.33  0.0113
758.34  0.0116
758.35  0.0121
758.36  0.0126
758.37  0.0131
758.38  0.0135
758.39  0.0140
758.40  0.0145
758.41  0.0150
758.42  0.0155
758.43  0.0159
758.44  0.0164
758.45  0.0171
758.46  0.0177
758.47  0.0184
758.48  0.0190
758.49  0.0196
758.50  0.0203
758.51  0.0209
758.52  0.0216
758.53  0.0222
758.54  0.0229
758.55  0.0237
758.56  0.0245
758.57  0.0254
758.58  0.0262
758.59  0.0271
758.60  0.0279
758.61  0.0288
758.62  0.0296
758.63  0.0305
758.64  0.0313
758.65  0.0324
758.66  0.0335
758.67  0.0346
758.68  0.0357
758.69  0.0368
758.70  0.0379
758.71  0.0390
758.72  0.0401
758.73  0.0411
758.74  0.0422
758.75  0.0436
758.76  0.0450
758.77  0.0464
758.78  0.0478
758.79  0.0492
758.80  0.0506
758.81  0.0520
758.82  0.0533
758.83  0.0547
758.84  0.0561
758.85  0.0579
758.86  0.0596
758.87  0.0613
758.88  0.0630
758.89  0.0654
758.90  0.0672
758.91  0.0690
758.92  0.0708
758.93  0.0725
758.94  0.0743
758.95  0.0765
758.96  0.0786
758.97  0.0808
758.98  0.0829
758.99  0.0851
759.00  0.0873
759.01  0.0894
759.02  0.0916
759.03  0.0938
759.04  0.0960
759.05  0.0986
759.06  0.1012
759.07  0.1038
759.08  0.1064
759.09  0.1090
759.10  0.1116
759.11  0.1142
759.12  0.1168
759.13  0.1195
759.14  0.1221
759.15  0.1252
759.16  0.1283
759.17  0.1313
759.18  0.1344
759.19  0.1375
759.20  0.1406
759.21  0.1437
759.22  0.1469
759.23  0.1500
759.24  0.1531
759.25  0.1567
759.26  0.1603
759.27  0.1638
759.28  0.1674
759.29  0.1710
759.30  0.1746
759.31  0.1783
759.32  0.1819
759.33  0.1856
759.34  0.1892
759.35  0.1933
759.36  0.1974
759.37  0.2014
759.38  0.2055
759.39  0.2096
759.40  0.2138
759.41  0.2179
759.42  0.2221
759.43  0.2262
759.44  0.2304
759.45  0.2350
759.46  0.2396
759.47  0.2441
759.48  0.2487
759.49  0.2533
759.50  0.2579
759.51  0.2626
759.52  0.2673
759.53  0.2720
759.54  0.2766
759.55  0.2816
759.56  0.2867
759.57  0.2917
759.58  0.2967
759.59  0.3017
759.60  0.3069
759.61  0.3120
759.62  0.3172
759.63  0.3223
759.64  0.3275
759.65  0.3329
759.66  0.3383
759.67  0.3437
759.68  0.3491
759.69  0.3545
759.70  0.3600
759.71  0.3656
759.72  0.3712
759.73  0.3767
759.74  0.3823
759.75  0.3880
759.76  0.3937
759.77  0.3994
759.78  0.4051
759.79  0.4108
759.80  0.4167
759.81  0.4226
759.82  0.4285
759.83  0.4344
759.84  0.4403
759.85  0.4462
759.86  0.4521
759.87  0.4580
759.88  0.4639
759.89  0.4698
759.90  0.4759
759.91  0.4820
759.92  0.4882
759.93  0.4943
759.94  0.5004
759.95  0.5064
759.96  0.5124
759.97  0.5183
759.98  0.5243
759.99  0.5302
760.00  0.5365
760.01  0.5427
760.02  0.5490
760.03  0.5552
760.04  0.5615
760.05  0.5674
760.06  0.5733
760.07  0.5792
760.08  0.5851
760.09  0.5910
760.10  0.5973
760.11  0.6035
760.12  0.6097
760.13  0.6160
760.14  0.6222
760.15  0.6279
760.16  0.6337
760.17  0.6394
760.18  0.6451
760.19  0.6508
760.20  0.6569
760.21  0.6630
760.22  0.6691
760.23  0.6752
760.24  0.6813
760.25  0.6867
760.26  0.6922
760.27  0.6976
760.28  0.7030
760.29  0.7084
760.30  0.7142
760.31  0.7201
760.32  0.7259
760.33  0.7318
760.34  0.7376
760.35  0.7426
760.36  0.7476
760.37  0.7526
760.38  0.7576
760.39  0.7626
760.40  0.7681
760.41  0.7735
760.42  0.7790
760.43  0.7845
760.44  0.7899
760.45  0.7944
760.46  0.7989
760.47  0.8035
760.48  0.8080
760.49  0.8125
760.50  0.8175
760.51  0.8224
760.52  0.8274
760.53  0.8324
760.54  0.8374
760.55  0.8413
760.56  0.8453
760.57  0.8493
760.58  0.8532
760.59  0.8572
760.60  0.8616
760.61  0.8660
760.62  0.8705
760.63  0.8749
760.64  0.8793
760.65  0.8827
760.66  0.8861
760.67  0.8894
760.68  0.8928
760.69  0.8962
760.70  0.9000
760.71  0.9038
760.72  0.9076
760.73  0.9114
760.74  0.9152
760.75  0.9180
760.76  0.9208
760.77  0.9236
760.78  0.9263
760.79  0.9291
760.80  0.9323
760.81  0.9354
760.82  0.9385
760.83  0.9417
760.84  0.9448
760.85  0.9470
760.86  0.9492
760.87  0.9514
760.88  0.9536
760.89  0.9558
760.90  0.9582
760.91  0.9607
760.92  0.9631
760.93  0.9656
760.94  0.9680
760.95  0.9697
760.96  0.9713
760.97  0.9729
760.98  0.9745
760.99  0.9761
761.00  0.9779
761.01  0.9797
761.02  0.9814
761.03  0.9832
761.04  0.9849
761.05  0.9860
761.06  0.9871
761.07  0.9881
761.08  0.9892
761.09  0.9903
761.10  0.9913
761.11  0.9924
761.12  0.9935
761.13  0.9945
761.14  0.9956
761.15  0.9961
761.16  0.9966
761.17  0.9972
761.18  0.9977
761.19  0.9982
761.20  0.9986
761.21  0.9989
761.22  0.9993
761.23  0.9996
761.24  1.0000
761.25  1.0000
761.26  1.0000
761.27  1.0000
761.28  1.0000
761.29  1.0000
761.30  0.9997
761.31  0.9993
761.32  0.9990
761.33  0.9986
761.34  0.9983
761.35  0.9977
761.36  0.9972
761.37  0.9967
761.38  0.9961
761.39  0.9956
761.40  0.9946
761.41  0.9935
761.42  0.9925
761.43  0.9914
761.44  0.9904
761.45  0.9893
761.46  0.9882
761.47  0.9872
761.48  0.9861
761.49  0.9850
761.50  0.9833
761.51  0.9815
761.52  0.9798
761.53  0.9780
761.54  0.9763
761.55  0.9746
761.56  0.9730
761.57  0.9714
761.58  0.9698
761.59  0.9681
761.60  0.9657
761.61  0.9632
761.62  0.9608
761.63  0.9583
761.64  0.9559
761.65  0.9537
761.66  0.9515
761.67  0.9493
761.68  0.9471
761.69  0.9449
761.70  0.9418
761.71  0.9386
761.72  0.9355
761.73  0.9323
761.74  0.9292
761.75  0.9264
761.76  0.9236
761.77  0.9208
761.78  0.9180
761.79  0.9153
761.80  0.9115
761.81  0.9077
761.82  0.9039
761.83  0.9001
761.84  0.8963
761.85  0.8929
761.86  0.8895
761.87  0.8861
761.88  0.8827
761.89  0.8793
761.90  0.8749
761.91  0.8705
761.92  0.8661
761.93  0.8617
761.94  0.8572
761.95  0.8533
761.96  0.8493
761.97  0.8453
761.98  0.8414
761.99  0.8374
762.00  0.8324
762.01  0.8274
762.02  0.8225
762.03  0.8175
762.04  0.8125
762.05  0.8080
762.06  0.8035
762.07  0.7989
762.08  0.7944
762.09  0.7899
762.10  0.7844
762.11  0.7790
762.12  0.7735
762.13  0.7681
762.14  0.7626
762.15  0.7576
762.16  0.7526
762.17  0.7476
762.18  0.7426
762.19  0.7376
762.20  0.7317
762.21  0.7259
762.22  0.7201
762.23  0.7142
762.24  0.7084
762.25  0.7030
762.26  0.6975
762.27  0.6921
762.28  0.6867
762.29  0.6813
762.30  0.6752
762.31  0.6691
762.32  0.6630
762.33  0.6569
762.34  0.6508
762.35  0.6451
762.36  0.6393
762.37  0.6336
762.38  0.6279
762.39  0.6222
762.40  0.6159
762.41  0.6097
762.42  0.6035
762.43  0.5972
762.44  0.5910
762.45  0.5851
762.46  0.5792
762.47  0.5733
762.48  0.5674
762.49  0.5615
762.50  0.5552
762.51  0.5489
762.52  0.5427
762.53  0.5364
762.54  0.5302
762.55  0.5242
762.56  0.5183
762.57  0.5123
762.58  0.5063
762.59  0.5004
762.60  0.4942
762.61  0.4881
762.62  0.4820
762.63  0.4758
762.64  0.4697
762.65  0.4638
762.66  0.4579
762.67  0.4520
762.68  0.4461
762.69  0.4402
762.70  0.4343
762.71  0.4284
762.72  0.4225
762.73  0.4166
762.74  0.4107
762.75  0.4050
762.76  0.3993
762.77  0.3936
762.78  0.3879
762.79  0.3822
762.80  0.3767
762.81  0.3711
762.82  0.3655
762.83  0.3600
762.84  0.3544
762.85  0.3490
762.86  0.3436
762.87  0.3382
762.88  0.3328
762.89  0.3274
762.90  0.3223
762.91  0.3171
762.92  0.3120
762.93  0.3068
762.94  0.3017
762.95  0.2967
762.96  0.2916
762.97  0.2866
762.98  0.2816
762.99  0.2766
763.00  0.2719
763.01  0.2672
763.02  0.2626
763.03  0.2579
763.04  0.2532
763.05  0.2486
763.06  0.2441
763.07  0.2395
763.08  0.2349
763.09  0.2304
763.10  0.2262
763.11  0.2220
763.12  0.2179
763.13  0.2137
763.14  0.2096
763.15  0.2055
763.16  0.2014
763.17  0.1973
763.18  0.1932
763.19  0.1891
763.20  0.1855
763.21  0.1819
763.22  0.1782
763.23  0.1746
763.24  0.1710
763.25  0.1674
763.26  0.1638
763.27  0.1602
763.28  0.1566
763.29  0.1531
763.30  0.1499
763.31  0.1468
763.32  0.1437
763.33  0.1406
763.34  0.1375
763.35  0.1344
763.36  0.1313
763.37  0.1282
763.38  0.1252
763.39  0.1221
763.40  0.1194
763.41  0.1168
763.42  0.1142
763.43  0.1116
763.44  0.1089
763.45  0.1063
763.46  0.1037
763.47  0.1011
763.48  0.0985
763.49  0.0959
763.50  0.0938
763.51  0.0916
763.52  0.0894
763.53  0.0872
763.54  0.0851
763.55  0.0829
763.56  0.0807
763.57  0.0786
763.58  0.0764
763.59  0.0743
763.60  0.0725
763.61  0.0707
763.62  0.0690
763.63  0.0672
763.64  0.0654
763.65  0.0630
763.66  0.0613
763.67  0.0596
763.68  0.0578
763.69  0.0561
763.70  0.0547
763.71  0.0533
763.72  0.0519
763.73  0.0506
763.74  0.0492
763.75  0.0478
763.76  0.0464
763.77  0.0450
763.78  0.0436
763.79  0.0422
763.80  0.0411
763.81  0.0400
763.82  0.0389
763.83  0.0379
763.84  0.0368
763.85  0.0357
763.86  0.0346
763.87  0.0335
763.88  0.0324
763.89  0.0313
763.90  0.0305
763.91  0.0296
763.92  0.0288
763.93  0.0279
763.94  0.0271
763.95  0.0262
763.96  0.0254
763.97  0.0245
763.98  0.0237
763.99  0.0228
764.00  0.0222
764.01  0.0216
764.02  0.0209
764.03  0.0203
764.04  0.0196
764.05  0.0190
764.06  0.0183
764.07  0.0177
764.08  0.0171
764.09  0.0164
764.10  0.0159
764.11  0.0155
764.12  0.0150
764.13  0.0145
764.14  0.0140
764.15  0.0135
764.16  0.0131
764.17  0.0126
764.18  0.0121
764.19  0.0116
764.20  0.0113
764.21  0.0109
764.22  0.0106
764.23  0.0102
764.24  0.0099
764.25  0.0095
764.26  0.0092
764.27  0.0088
764.28  0.0085
764.29  0.0081
764.30  0.0078
764.31  0.0076
764.32  0.0073
764.33  0.0071
764.34  0.0068
764.35  0.0066
764.36  0.0063
764.37  0.0061
764.38  0.0058
764.39  0.0056
764.40  0.0054
764.41  0.0052
764.42  0.0050
764.43  0.0048
764.44  0.0047
764.45  0.0045
764.46  0.0043
764.47  0.0041
764.48  0.0039
764.49  0.0038
764.50  0.0036
764.51  0.0035
764.52  0.0034
764.53  0.0033
764.54  0.0031
764.55  0.0030
764.56  0.0029
764.57  0.0028
764.58  0.0026
764.59  0.0025
764.60  0.0024
764.61  0.0023
764.62  0.0022
764.63  0.0022
764.64  0.0021
764.65  0.0020
764.66  0.0019
764.67  0.0018
764.68  0.0017
764.69  0.0016
764.70  0.0016
764.71  0.0015
764.72  0.0015
764.73  0.0014
764.74  0.0013
764.75  0.0013
764.76  0.0012
764.77  0.0012
764.78  0.0011
764.79  0.0011
764.80  0.0010
764.81  0.0010
764.82  0.0009
764.83  0.0009
764.84  0.0009
764.85  0.0008
764.86  0.0008
764.87  0.0007
764.88  0.0007
764.89  0.0007
