# Provided by ESA in 10/2012
# Important Notes:
# The data contained here correspond to the OLCI Spectral Model CDR derived in 2011.
# The data have been calculated for the camera 4, pointing nadir.
552.76  0.0006
552.77  0.0006
552.78  0.0007
552.79  0.0007
552.80  0.0007
552.81  0.0008
552.82  0.0008
552.83  0.0008
552.84  0.0009
552.85  0.0009
552.86  0.0010
552.87  0.0010
552.88  0.0011
552.89  0.0011
552.90  0.0012
552.91  0.0012
552.92  0.0013
552.93  0.0013
552.94  0.0014
552.95  0.0014
552.96  0.0015
552.97  0.0016
552.98  0.0016
552.99  0.0017
553.00  0.0018
553.01  0.0019
553.02  0.0019
553.03  0.0020
553.04  0.0021
553.05  0.0022
553.06  0.0023
553.07  0.0024
553.08  0.0025
553.09  0.0026
553.10  0.0027
553.11  0.0028
553.12  0.0029
553.13  0.0030
553.14  0.0032
553.15  0.0033
553.16  0.0034
553.17  0.0035
553.18  0.0037
553.19  0.0039
553.20  0.0040
553.21  0.0042
553.22  0.0044
553.23  0.0045
553.24  0.0047
553.25  0.0048
553.26  0.0050
553.27  0.0052
553.28  0.0055
553.29  0.0057
553.30  0.0059
553.31  0.0062
553.32  0.0064
553.33  0.0066
553.34  0.0068
553.35  0.0071
553.36  0.0073
553.37  0.0076
553.38  0.0079
553.39  0.0083
553.40  0.0086
553.41  0.0089
553.42  0.0092
553.43  0.0095
553.44  0.0098
553.45  0.0102
553.46  0.0105
553.47  0.0109
553.48  0.0113
553.49  0.0118
553.50  0.0122
553.51  0.0126
553.52  0.0131
553.53  0.0135
553.54  0.0139
553.55  0.0144
553.56  0.0148
553.57  0.0154
553.58  0.0160
553.59  0.0165
553.60  0.0171
553.61  0.0177
553.62  0.0183
553.63  0.0189
553.64  0.0194
553.65  0.0200
553.66  0.0206
553.67  0.0214
553.68  0.0221
553.69  0.0229
553.70  0.0236
553.71  0.0244
553.72  0.0252
553.73  0.0259
553.74  0.0267
553.75  0.0275
553.76  0.0282
553.77  0.0292
553.78  0.0302
553.79  0.0312
553.80  0.0322
553.81  0.0332
553.82  0.0341
553.83  0.0351
553.84  0.0361
553.85  0.0371
553.86  0.0381
553.87  0.0393
553.88  0.0406
553.89  0.0418
553.90  0.0431
553.91  0.0443
553.92  0.0456
553.93  0.0468
553.94  0.0481
553.95  0.0494
553.96  0.0506
553.97  0.0522
553.98  0.0537
553.99  0.0559
554.00  0.0575
554.01  0.0591
554.02  0.0607
554.03  0.0623
554.04  0.0639
554.05  0.0655
554.06  0.0671
554.07  0.0690
554.08  0.0710
554.09  0.0729
554.10  0.0749
554.11  0.0768
554.12  0.0788
554.13  0.0808
554.14  0.0827
554.15  0.0847
554.16  0.0867
554.17  0.0890
554.18  0.0913
554.19  0.0937
554.20  0.0961
554.21  0.0984
554.22  0.1008
554.23  0.1032
554.24  0.1056
554.25  0.1079
554.26  0.1103
554.27  0.1131
554.28  0.1159
554.29  0.1186
554.30  0.1215
554.31  0.1243
554.32  0.1271
554.33  0.1299
554.34  0.1327
554.35  0.1355
554.36  0.1384
554.37  0.1416
554.38  0.1448
554.39  0.1481
554.40  0.1513
554.41  0.1546
554.42  0.1579
554.43  0.1612
554.44  0.1645
554.45  0.1678
554.46  0.1710
554.47  0.1747
554.48  0.1784
554.49  0.1821
554.50  0.1859
554.51  0.1896
554.52  0.1934
554.53  0.1971
554.54  0.2009
554.55  0.2047
554.56  0.2084
554.57  0.2125
554.58  0.2167
554.59  0.2208
554.60  0.2250
554.61  0.2292
554.62  0.2335
554.63  0.2377
554.64  0.2419
554.65  0.2461
554.66  0.2503
554.67  0.2549
554.68  0.2594
554.69  0.2640
554.70  0.2686
554.71  0.2733
554.72  0.2779
554.73  0.2826
554.74  0.2872
554.75  0.2919
554.76  0.2965
554.77  0.3014
554.78  0.3063
554.79  0.3112
554.80  0.3162
554.81  0.3212
554.82  0.3263
554.83  0.3313
554.84  0.3363
554.85  0.3413
554.86  0.3464
554.87  0.3515
554.88  0.3567
554.89  0.3618
554.90  0.3672
554.91  0.3725
554.92  0.3778
554.93  0.3832
554.94  0.3885
554.95  0.3939
554.96  0.3992
554.97  0.4045
554.98  0.4098
554.99  0.4152
555.00  0.4207
555.01  0.4263
555.02  0.4318
555.03  0.4374
555.04  0.4429
555.05  0.4485
555.06  0.4540
555.07  0.4594
555.08  0.4648
555.09  0.4702
555.10  0.4758
555.11  0.4815
555.12  0.4872
555.13  0.4928
555.14  0.4985
555.15  0.5041
555.16  0.5098
555.17  0.5151
555.18  0.5205
555.19  0.5258
555.20  0.5315
555.21  0.5371
555.22  0.5428
555.23  0.5484
555.24  0.5547
555.25  0.5604
555.26  0.5660
555.27  0.5713
555.28  0.5765
555.29  0.5817
555.30  0.5872
555.31  0.5928
555.32  0.5984
555.33  0.6039
555.34  0.6095
555.35  0.6151
555.36  0.6206
555.37  0.6256
555.38  0.6306
555.39  0.6355
555.40  0.6409
555.41  0.6462
555.42  0.6515
555.43  0.6569
555.44  0.6622
555.45  0.6676
555.46  0.6729
555.47  0.6776
555.48  0.6822
555.49  0.6868
555.50  0.6918
555.51  0.6968
555.52  0.7019
555.53  0.7069
555.54  0.7119
555.55  0.7170
555.56  0.7220
555.57  0.7262
555.58  0.7304
555.59  0.7346
555.60  0.7393
555.61  0.7439
555.62  0.7485
555.63  0.7532
555.64  0.7578
555.65  0.7625
555.66  0.7671
555.67  0.7709
555.68  0.7747
555.69  0.7784
555.70  0.7826
555.71  0.7868
555.72  0.7909
555.73  0.7951
555.74  0.7993
555.75  0.8035
555.76  0.8077
555.77  0.8111
555.78  0.8144
555.79  0.8177
555.80  0.8213
555.81  0.8250
555.82  0.8287
555.83  0.8324
555.84  0.8360
555.85  0.8398
555.86  0.8436
555.87  0.8464
555.88  0.8493
555.89  0.8521
555.90  0.8553
555.91  0.8585
555.92  0.8616
555.93  0.8648
555.94  0.8680
555.95  0.8713
555.96  0.8746
555.97  0.8770
555.98  0.8794
555.99  0.8819
556.00  0.8845
556.01  0.8872
556.02  0.8899
556.03  0.8925
556.04  0.8952
556.05  0.8980
556.06  0.9008
556.07  0.9029
556.08  0.9049
556.09  0.9070
556.10  0.9092
556.11  0.9114
556.12  0.9135
556.13  0.9157
556.14  0.9179
556.15  0.9203
556.16  0.9226
556.17  0.9244
556.18  0.9261
556.19  0.9279
556.20  0.9296
556.21  0.9313
556.22  0.9331
556.23  0.9348
556.24  0.9365
556.25  0.9385
556.26  0.9404
556.27  0.9419
556.28  0.9434
556.29  0.9449
556.30  0.9462
556.31  0.9475
556.32  0.9488
556.33  0.9502
556.34  0.9515
556.35  0.9531
556.36  0.9546
556.37  0.9559
556.38  0.9572
556.39  0.9584
556.40  0.9594
556.41  0.9603
556.42  0.9613
556.43  0.9622
556.44  0.9632
556.45  0.9645
556.46  0.9657
556.47  0.9668
556.48  0.9679
556.49  0.9696
556.50  0.9703
556.51  0.9709
556.52  0.9716
556.53  0.9722
556.54  0.9729
556.55  0.9739
556.56  0.9749
556.57  0.9759
556.58  0.9769
556.59  0.9779
556.60  0.9783
556.61  0.9787
556.62  0.9791
556.63  0.9795
556.64  0.9799
556.65  0.9806
556.66  0.9814
556.67  0.9823
556.68  0.9832
556.69  0.9841
556.70  0.9843
556.71  0.9844
556.72  0.9846
556.73  0.9848
556.74  0.9849
556.75  0.9855
556.76  0.9861
556.77  0.9869
556.78  0.9877
556.79  0.9885
556.80  0.9885
556.81  0.9885
556.82  0.9885
556.83  0.9885
556.84  0.9885
556.85  0.9889
556.86  0.9893
556.87  0.9900
556.88  0.9908
556.89  0.9915
556.90  0.9913
556.91  0.9912
556.92  0.9911
556.93  0.9909
556.94  0.9908
556.95  0.9911
556.96  0.9913
556.97  0.9920
556.98  0.9926
556.99  0.9933
557.00  0.9930
557.01  0.9928
557.02  0.9926
557.03  0.9924
557.04  0.9921
557.05  0.9923
557.06  0.9924
557.07  0.9930
557.08  0.9935
557.09  0.9941
557.10  0.9938
557.11  0.9936
557.12  0.9933
557.13  0.9930
557.14  0.9928
557.15  0.9928
557.16  0.9928
557.17  0.9933
557.18  0.9938
557.19  0.9942
557.20  0.9940
557.21  0.9937
557.22  0.9934
557.23  0.9932
557.24  0.9929
557.25  0.9928
557.26  0.9928
557.27  0.9932
557.28  0.9935
557.29  0.9939
557.30  0.9937
557.31  0.9934
557.32  0.9932
557.33  0.9930
557.34  0.9927
557.35  0.9926
557.36  0.9925
557.37  0.9928
557.38  0.9930
557.39  0.9933
557.40  0.9931
557.41  0.9929
557.42  0.9928
557.43  0.9926
557.44  0.9924
557.45  0.9922
557.46  0.9921
557.47  0.9922
557.48  0.9924
557.49  0.9926
557.50  0.9925
557.51  0.9924
557.52  0.9923
557.53  0.9922
557.54  0.9921
557.55  0.9919
557.56  0.9916
557.57  0.9917
557.58  0.9918
557.59  0.9918
557.60  0.9918
557.61  0.9919
557.62  0.9919
557.63  0.9919
557.64  0.9919
557.65  0.9916
557.66  0.9913
557.67  0.9912
557.68  0.9912
557.69  0.9912
557.70  0.9913
557.71  0.9914
557.72  0.9915
557.73  0.9922
557.74  0.9924
557.75  0.9920
557.76  0.9917
557.77  0.9916
557.78  0.9915
557.79  0.9914
557.80  0.9916
557.81  0.9918
557.82  0.9921
557.83  0.9923
557.84  0.9926
557.85  0.9922
557.86  0.9918
557.87  0.9916
557.88  0.9914
557.89  0.9912
557.90  0.9915
557.91  0.9919
557.92  0.9922
557.93  0.9925
557.94  0.9928
557.95  0.9924
557.96  0.9920
557.97  0.9917
557.98  0.9915
557.99  0.9912
558.00  0.9916
558.01  0.9920
558.02  0.9923
558.03  0.9927
558.04  0.9931
558.05  0.9927
558.06  0.9922
558.07  0.9919
558.08  0.9916
558.09  0.9912
558.10  0.9917
558.11  0.9921
558.12  0.9925
558.13  0.9929
558.14  0.9933
558.15  0.9929
558.16  0.9924
558.17  0.9921
558.18  0.9917
558.19  0.9913
558.20  0.9917
558.21  0.9921
558.22  0.9926
558.23  0.9930
558.24  0.9935
558.25  0.9930
558.26  0.9925
558.27  0.9921
558.28  0.9918
558.29  0.9914
558.30  0.9918
558.31  0.9922
558.32  0.9926
558.33  0.9929
558.34  0.9934
558.35  0.9930
558.36  0.9926
558.37  0.9922
558.38  0.9918
558.39  0.9914
558.40  0.9918
558.41  0.9921
558.42  0.9925
558.43  0.9928
558.44  0.9933
558.45  0.9929
558.46  0.9925
558.47  0.9922
558.48  0.9918
558.49  0.9915
558.50  0.9918
558.51  0.9920
558.52  0.9923
558.53  0.9926
558.54  0.9931
558.55  0.9927
558.56  0.9924
558.57  0.9921
558.58  0.9918
558.59  0.9916
558.60  0.9918
558.61  0.9920
558.62  0.9922
558.63  0.9924
558.64  0.9928
558.65  0.9926
558.66  0.9924
558.67  0.9922
558.68  0.9920
558.69  0.9917
558.70  0.9919
558.71  0.9920
558.72  0.9921
558.73  0.9923
558.74  0.9926
558.75  0.9925
558.76  0.9924
558.77  0.9917
558.78  0.9916
558.79  0.9915
558.80  0.9916
558.81  0.9917
558.82  0.9917
558.83  0.9918
558.84  0.9921
558.85  0.9921
558.86  0.9921
558.87  0.9921
558.88  0.9922
558.89  0.9922
558.90  0.9921
558.91  0.9921
558.92  0.9921
558.93  0.9920
558.94  0.9923
558.95  0.9924
558.96  0.9925
558.97  0.9926
558.98  0.9933
558.99  0.9935
559.00  0.9934
559.01  0.9933
559.02  0.9932
559.03  0.9931
559.04  0.9933
559.05  0.9935
559.06  0.9938
559.07  0.9940
559.08  0.9942
559.09  0.9945
559.10  0.9943
559.11  0.9941
559.12  0.9939
559.13  0.9937
559.14  0.9939
559.15  0.9942
559.16  0.9945
559.17  0.9949
559.18  0.9952
559.19  0.9955
559.20  0.9952
559.21  0.9950
559.22  0.9947
559.23  0.9944
559.24  0.9946
559.25  0.9950
559.26  0.9953
559.27  0.9957
559.28  0.9961
559.29  0.9965
559.30  0.9962
559.31  0.9958
559.32  0.9955
559.33  0.9952
559.34  0.9953
559.35  0.9957
559.36  0.9961
559.37  0.9965
559.38  0.9969
559.39  0.9974
559.40  0.9970
559.41  0.9966
559.42  0.9963
559.43  0.9959
559.44  0.9959
559.45  0.9963
559.46  0.9968
559.47  0.9972
559.48  0.9976
559.49  0.9981
559.50  0.9977
559.51  0.9973
559.52  0.9969
559.53  0.9965
559.54  0.9965
559.55  0.9969
559.56  0.9973
559.57  0.9977
559.58  0.9981
559.59  0.9986
559.60  0.9982
559.61  0.9978
559.62  0.9974
559.63  0.9970
559.64  0.9970
559.65  0.9973
559.66  0.9977
559.67  0.9980
559.68  0.9984
559.69  0.9988
559.70  0.9985
559.71  0.9981
559.72  0.9978
559.73  0.9974
559.74  0.9973
559.75  0.9976
559.76  0.9979
559.77  0.9982
559.78  0.9985
559.79  0.9989
559.80  0.9986
559.81  0.9983
559.82  0.9980
559.83  0.9977
559.84  0.9976
559.85  0.9978
559.86  0.9980
559.87  0.9982
559.88  0.9984
559.89  0.9988
559.90  0.9986
559.91  0.9984
559.92  0.9982
559.93  0.9980
559.94  0.9978
559.95  0.9979
559.96  0.9981
559.97  0.9982
559.98  0.9983
559.99  0.9987
560.00  0.9980
560.01  0.9979
560.02  0.9978
560.03  0.9977
560.04  0.9975
560.05  0.9976
560.06  0.9976
560.07  0.9977
560.08  0.9978
560.09  0.9981
560.10  0.9981
560.11  0.9981
560.12  0.9981
560.13  0.9981
560.14  0.9978
560.15  0.9978
560.16  0.9978
560.17  0.9977
560.18  0.9977
560.19  0.9980
560.20  0.9981
560.21  0.9982
560.22  0.9983
560.23  0.9990
560.24  0.9987
560.25  0.9986
560.26  0.9985
560.27  0.9984
560.28  0.9983
560.29  0.9985
560.30  0.9988
560.31  0.9990
560.32  0.9992
560.33  0.9995
560.34  0.9991
560.35  0.9989
560.36  0.9987
560.37  0.9985
560.38  0.9983
560.39  0.9985
560.40  0.9989
560.41  0.9992
560.42  0.9995
560.43  0.9998
560.44  0.9994
560.45  0.9991
560.46  0.9989
560.47  0.9986
560.48  0.9983
560.49  0.9985
560.50  0.9989
560.51  0.9992
560.52  0.9996
560.53  1.0000
560.54  0.9996
560.55  0.9992
560.56  0.9989
560.57  0.9986
560.58  0.9983
560.59  0.9984
560.60  0.9988
560.61  0.9992
560.62  0.9996
560.63  1.0000
560.64  0.9995
560.65  0.9992
560.66  0.9988
560.67  0.9984
560.68  0.9981
560.69  0.9981
560.70  0.9985
560.71  0.9989
560.72  0.9994
560.73  0.9998
560.74  0.9993
560.75  0.9989
560.76  0.9986
560.77  0.9982
560.78  0.9978
560.79  0.9978
560.80  0.9982
560.81  0.9986
560.82  0.9990
560.83  0.9994
560.84  0.9989
560.85  0.9985
560.86  0.9982
560.87  0.9978
560.88  0.9974
560.89  0.9973
560.90  0.9977
560.91  0.9980
560.92  0.9984
560.93  0.9987
560.94  0.9984
560.95  0.9980
560.96  0.9977
560.97  0.9973
560.98  0.9970
560.99  0.9968
561.00  0.9971
561.01  0.9974
561.02  0.9977
561.03  0.9980
561.04  0.9977
561.05  0.9974
561.06  0.9971
561.07  0.9968
561.08  0.9966
561.09  0.9964
561.10  0.9966
561.11  0.9968
561.12  0.9970
561.13  0.9973
561.14  0.9970
561.15  0.9968
561.16  0.9966
561.17  0.9964
561.18  0.9962
561.19  0.9960
561.20  0.9961
561.21  0.9963
561.22  0.9964
561.23  0.9965
561.24  0.9964
561.25  0.9957
561.26  0.9956
561.27  0.9956
561.28  0.9955
561.29  0.9952
561.30  0.9953
561.31  0.9954
561.32  0.9954
561.33  0.9955
561.34  0.9955
561.35  0.9955
561.36  0.9955
561.37  0.9956
561.38  0.9956
561.39  0.9953
561.40  0.9952
561.41  0.9952
561.42  0.9952
561.43  0.9951
561.44  0.9952
561.45  0.9953
561.46  0.9955
561.47  0.9962
561.48  0.9963
561.49  0.9960
561.50  0.9959
561.51  0.9958
561.52  0.9957
561.53  0.9956
561.54  0.9958
561.55  0.9960
561.56  0.9963
561.57  0.9965
561.58  0.9968
561.59  0.9964
561.60  0.9962
561.61  0.9960
561.62  0.9958
561.63  0.9956
561.64  0.9960
561.65  0.9963
561.66  0.9966
561.67  0.9969
561.68  0.9973
561.69  0.9968
561.70  0.9966
561.71  0.9963
561.72  0.9960
561.73  0.9958
561.74  0.9962
561.75  0.9965
561.76  0.9969
561.77  0.9973
561.78  0.9977
561.79  0.9973
561.80  0.9969
561.81  0.9966
561.82  0.9963
561.83  0.9960
561.84  0.9964
561.85  0.9968
561.86  0.9972
561.87  0.9976
561.88  0.9981
561.89  0.9976
561.90  0.9973
561.91  0.9969
561.92  0.9965
561.93  0.9961
561.94  0.9966
561.95  0.9970
561.96  0.9974
561.97  0.9978
561.98  0.9983
561.99  0.9979
562.00  0.9975
562.01  0.9971
562.02  0.9967
562.03  0.9963
562.04  0.9967
562.05  0.9971
562.06  0.9975
562.07  0.9979
562.08  0.9984
562.09  0.9979
562.10  0.9976
562.11  0.9972
562.12  0.9968
562.13  0.9964
562.14  0.9968
562.15  0.9971
562.16  0.9975
562.17  0.9978
562.18  0.9983
562.19  0.9979
562.20  0.9976
562.21  0.9972
562.22  0.9969
562.23  0.9965
562.24  0.9968
562.25  0.9971
562.26  0.9974
562.27  0.9977
562.28  0.9981
562.29  0.9978
562.30  0.9975
562.31  0.9972
562.32  0.9970
562.33  0.9967
562.34  0.9969
562.35  0.9971
562.36  0.9973
562.37  0.9975
562.38  0.9980
562.39  0.9977
562.40  0.9975
562.41  0.9973
562.42  0.9971
562.43  0.9969
562.44  0.9970
562.45  0.9972
562.46  0.9973
562.47  0.9974
562.48  0.9978
562.49  0.9977
562.50  0.9970
562.51  0.9969
562.52  0.9968
562.53  0.9967
562.54  0.9968
562.55  0.9969
562.56  0.9969
562.57  0.9970
562.58  0.9973
562.59  0.9973
562.60  0.9974
562.61  0.9974
562.62  0.9974
562.63  0.9974
562.64  0.9974
562.65  0.9973
562.66  0.9973
562.67  0.9973
562.68  0.9975
562.69  0.9976
562.70  0.9978
562.71  0.9979
562.72  0.9980
562.73  0.9981
562.74  0.9980
562.75  0.9978
562.76  0.9977
562.77  0.9975
562.78  0.9977
562.79  0.9980
562.80  0.9982
562.81  0.9984
562.82  0.9986
562.83  0.9988
562.84  0.9985
562.85  0.9983
562.86  0.9980
562.87  0.9978
562.88  0.9979
562.89  0.9982
562.90  0.9985
562.91  0.9987
562.92  0.9990
562.93  0.9993
562.94  0.9989
562.95  0.9986
562.96  0.9982
562.97  0.9979
562.98  0.9979
562.99  0.9982
563.00  0.9985
563.01  0.9988
563.02  0.9992
563.03  0.9995
563.04  0.9990
563.05  0.9986
563.06  0.9981
563.07  0.9977
563.08  0.9977
563.09  0.9980
563.10  0.9983
563.11  0.9986
563.12  0.9989
563.13  0.9992
563.14  0.9986
563.15  0.9981
563.16  0.9976
563.17  0.9970
563.18  0.9969
563.19  0.9972
563.20  0.9974
563.21  0.9977
563.22  0.9979
563.23  0.9982
563.24  0.9976
563.25  0.9969
563.26  0.9963
563.27  0.9957
563.28  0.9954
563.29  0.9956
563.30  0.9958
563.31  0.9959
563.32  0.9961
563.33  0.9963
563.34  0.9956
563.35  0.9949
563.36  0.9942
563.37  0.9935
563.38  0.9931
563.39  0.9931
563.40  0.9931
563.41  0.9932
563.42  0.9932
563.43  0.9932
563.44  0.9924
563.45  0.9917
563.46  0.9909
563.47  0.9901
563.48  0.9895
563.49  0.9894
563.50  0.9892
563.51  0.9891
563.52  0.9890
563.53  0.9888
563.54  0.9879
563.55  0.9871
563.56  0.9862
563.57  0.9853
563.58  0.9845
563.59  0.9842
563.60  0.9838
563.61  0.9834
563.62  0.9831
563.63  0.9827
563.64  0.9817
563.65  0.9808
563.66  0.9798
563.67  0.9788
563.68  0.9778
563.69  0.9772
563.70  0.9765
563.71  0.9759
563.72  0.9752
563.73  0.9746
563.74  0.9729
563.75  0.9718
563.76  0.9707
563.77  0.9697
563.78  0.9684
563.79  0.9675
563.80  0.9666
563.81  0.9656
563.82  0.9647
563.83  0.9638
563.84  0.9625
563.85  0.9612
563.86  0.9600
563.87  0.9587
563.88  0.9572
563.89  0.9559
563.90  0.9545
563.91  0.9532
563.92  0.9519
563.93  0.9506
563.94  0.9492
563.95  0.9477
563.96  0.9462
563.97  0.9448
563.98  0.9428
563.99  0.9411
564.00  0.9394
564.01  0.9376
564.02  0.9359
564.03  0.9342
564.04  0.9324
564.05  0.9307
564.06  0.9290
564.07  0.9272
564.08  0.9249
564.09  0.9227
564.10  0.9205
564.11  0.9183
564.12  0.9161
564.13  0.9140
564.14  0.9119
564.15  0.9098
564.16  0.9078
564.17  0.9057
564.18  0.9029
564.19  0.9002
564.20  0.8976
564.21  0.8949
564.22  0.8922
564.23  0.8896
564.24  0.8871
564.25  0.8847
564.26  0.8822
564.27  0.8798
564.28  0.8765
564.29  0.8733
564.30  0.8701
564.31  0.8670
564.32  0.8638
564.33  0.8606
564.34  0.8577
564.35  0.8549
564.36  0.8520
564.37  0.8491
564.38  0.8453
564.39  0.8416
564.40  0.8379
564.41  0.8343
564.42  0.8306
564.43  0.8269
564.44  0.8235
564.45  0.8202
564.46  0.8169
564.47  0.8136
564.48  0.8093
564.49  0.8051
564.50  0.8009
564.51  0.7967
564.52  0.7925
564.53  0.7883
564.54  0.7845
564.55  0.7807
564.56  0.7770
564.57  0.7732
564.58  0.7685
564.59  0.7638
564.60  0.7591
564.61  0.7545
564.62  0.7498
564.63  0.7451
564.64  0.7409
564.65  0.7367
564.66  0.7324
564.67  0.7282
564.68  0.7231
564.69  0.7180
564.70  0.7129
564.71  0.7079
564.72  0.7028
564.73  0.6977
564.74  0.6931
564.75  0.6884
564.76  0.6838
564.77  0.6791
564.78  0.6737
564.79  0.6683
564.80  0.6629
564.81  0.6575
564.82  0.6521
564.83  0.6467
564.84  0.6417
564.85  0.6367
564.86  0.6317
564.87  0.6267
564.88  0.6211
564.89  0.6155
564.90  0.6099
564.91  0.6042
564.92  0.5986
564.93  0.5930
564.94  0.5877
564.95  0.5825
564.96  0.5772
564.97  0.5720
564.98  0.5662
564.99  0.5599
565.00  0.5542
565.01  0.5485
565.02  0.5427
565.03  0.5370
565.04  0.5316
565.05  0.5262
565.06  0.5208
565.07  0.5154
565.08  0.5097
565.09  0.5040
565.10  0.4983
565.11  0.4926
565.12  0.4868
565.13  0.4811
565.14  0.4757
565.15  0.4702
565.16  0.4648
565.17  0.4593
565.18  0.4537
565.19  0.4481
565.20  0.4425
565.21  0.4368
565.22  0.4312
565.23  0.4256
565.24  0.4202
565.25  0.4148
565.26  0.4094
565.27  0.4041
565.28  0.3987
565.29  0.3932
565.30  0.3878
565.31  0.3824
565.32  0.3770
565.33  0.3716
565.34  0.3664
565.35  0.3612
565.36  0.3560
565.37  0.3508
565.38  0.3457
565.39  0.3406
565.40  0.3355
565.41  0.3304
565.42  0.3253
565.43  0.3202
565.44  0.3153
565.45  0.3103
565.46  0.3054
565.47  0.3004
565.48  0.2957
565.49  0.2910
565.50  0.2863
565.51  0.2816
565.52  0.2769
565.53  0.2721
565.54  0.2676
565.55  0.2630
565.56  0.2584
565.57  0.2538
565.58  0.2495
565.59  0.2452
565.60  0.2409
565.61  0.2367
565.62  0.2324
565.63  0.2281
565.64  0.2239
565.65  0.2197
565.66  0.2155
565.67  0.2114
565.68  0.2075
565.69  0.2037
565.70  0.1999
565.71  0.1961
565.72  0.1923
565.73  0.1885
565.74  0.1848
565.75  0.1810
565.76  0.1773
565.77  0.1735
565.78  0.1702
565.79  0.1669
565.80  0.1635
565.81  0.1602
565.82  0.1569
565.83  0.1536
565.84  0.1503
565.85  0.1470
565.86  0.1437
565.87  0.1404
565.88  0.1376
565.89  0.1347
565.90  0.1319
565.91  0.1290
565.92  0.1261
565.93  0.1233
565.94  0.1205
565.95  0.1176
565.96  0.1148
565.97  0.1120
565.98  0.1096
565.99  0.1072
566.00  0.1048
566.01  0.1024
566.02  0.1000
566.03  0.0975
566.04  0.0952
566.05  0.0928
566.06  0.0904
566.07  0.0880
566.08  0.0860
566.09  0.0840
566.10  0.0820
566.11  0.0800
566.12  0.0780
566.13  0.0761
566.14  0.0741
566.15  0.0721
566.16  0.0701
566.17  0.0681
566.18  0.0665
566.19  0.0649
566.20  0.0633
566.21  0.0617
566.22  0.0600
566.23  0.0584
566.24  0.0562
566.25  0.0546
566.26  0.0530
566.27  0.0515
566.28  0.0502
566.29  0.0489
566.30  0.0476
566.31  0.0464
566.32  0.0451
566.33  0.0438
566.34  0.0426
566.35  0.0413
566.36  0.0400
566.37  0.0387
566.38  0.0377
566.39  0.0367
566.40  0.0357
566.41  0.0347
566.42  0.0337
566.43  0.0327
566.44  0.0317
566.45  0.0307
566.46  0.0297
566.47  0.0287
566.48  0.0279
566.49  0.0272
566.50  0.0264
566.51  0.0256
566.52  0.0248
566.53  0.0241
566.54  0.0233
566.55  0.0225
566.56  0.0217
566.57  0.0210
566.58  0.0204
566.59  0.0198
566.60  0.0192
566.61  0.0186
566.62  0.0180
566.63  0.0174
566.64  0.0168
566.65  0.0162
566.66  0.0157
566.67  0.0151
566.68  0.0146
566.69  0.0142
566.70  0.0137
566.71  0.0133
566.72  0.0129
566.73  0.0124
566.74  0.0120
566.75  0.0115
566.76  0.0111
566.77  0.0107
566.78  0.0103
566.79  0.0100
566.80  0.0097
566.81  0.0094
566.82  0.0091
566.83  0.0087
566.84  0.0084
566.85  0.0081
566.86  0.0078
566.87  0.0074
566.88  0.0072
566.89  0.0070
566.90  0.0067
566.91  0.0065
566.92  0.0063
566.93  0.0060
566.94  0.0058
566.95  0.0056
566.96  0.0053
566.97  0.0051
566.98  0.0049
566.99  0.0048
567.00  0.0046
567.01  0.0044
567.02  0.0043
567.03  0.0041
567.04  0.0039
567.05  0.0038
567.06  0.0036
567.07  0.0035
567.08  0.0033
567.09  0.0032
567.10  0.0031
567.11  0.0030
567.12  0.0029
567.13  0.0028
567.14  0.0026
567.15  0.0025
567.16  0.0024
567.17  0.0023
567.18  0.0022
567.19  0.0021
567.20  0.0021
567.21  0.0020
567.22  0.0019
567.23  0.0018
567.24  0.0017
567.25  0.0017
567.26  0.0016
567.27  0.0015
567.28  0.0015
567.29  0.0014
567.30  0.0013
567.31  0.0013
567.32  0.0012
567.33  0.0012
567.34  0.0011
567.35  0.0011
567.36  0.0010
567.37  0.0010
567.38  0.0009
567.39  0.0009
567.40  0.0009
567.41  0.0008
567.42  0.0008
567.43  0.0008
567.44  0.0007
567.45  0.0007
567.46  0.0007
567.47  0.0006
