# Provided by ESA in 10/2012
# Important Notes:
# The data contained here correspond to the OLCI Spectral Model CDR derived in 2011.
# The data have been calculated for the camera 4, pointing nadir.
892.73  0.0006
892.74  0.0007
892.75  0.0007
892.76  0.0008
892.77  0.0008
892.78  0.0008
892.79  0.0009
892.80  0.0009
892.81  0.0009
892.82  0.0010
892.83  0.0010
892.84  0.0011
892.85  0.0011
892.86  0.0012
892.87  0.0012
892.88  0.0013
892.89  0.0013
892.90  0.0014
892.91  0.0015
892.92  0.0015
892.93  0.0016
892.94  0.0017
892.95  0.0017
892.96  0.0018
892.97  0.0019
892.98  0.0020
892.99  0.0021
893.00  0.0021
893.01  0.0022
893.02  0.0023
893.03  0.0024
893.04  0.0025
893.05  0.0026
893.06  0.0028
893.07  0.0029
893.08  0.0030
893.09  0.0031
893.10  0.0032
893.11  0.0033
893.12  0.0035
893.13  0.0036
893.14  0.0038
893.15  0.0039
893.16  0.0041
893.17  0.0043
893.18  0.0044
893.19  0.0046
893.20  0.0048
893.21  0.0050
893.22  0.0051
893.23  0.0053
893.24  0.0055
893.25  0.0058
893.26  0.0060
893.27  0.0063
893.28  0.0065
893.29  0.0068
893.30  0.0070
893.31  0.0072
893.32  0.0075
893.33  0.0077
893.34  0.0081
893.35  0.0084
893.36  0.0087
893.37  0.0091
893.38  0.0094
893.39  0.0097
893.40  0.0101
893.41  0.0104
893.42  0.0107
893.43  0.0111
893.44  0.0115
893.45  0.0120
893.46  0.0124
893.47  0.0129
893.48  0.0133
893.49  0.0138
893.50  0.0143
893.51  0.0147
893.52  0.0152
893.53  0.0156
893.54  0.0162
893.55  0.0168
893.56  0.0175
893.57  0.0181
893.58  0.0187
893.59  0.0193
893.60  0.0199
893.61  0.0205
893.62  0.0211
893.63  0.0217
893.64  0.0225
893.65  0.0233
893.66  0.0241
893.67  0.0249
893.68  0.0257
893.69  0.0265
893.70  0.0273
893.71  0.0281
893.72  0.0289
893.73  0.0297
893.74  0.0308
893.75  0.0318
893.76  0.0328
893.77  0.0339
893.78  0.0349
893.79  0.0359
893.80  0.0370
893.81  0.0380
893.82  0.0390
893.83  0.0401
893.84  0.0414
893.85  0.0427
893.86  0.0440
893.87  0.0453
893.88  0.0466
893.89  0.0479
893.90  0.0493
893.91  0.0506
893.92  0.0519
893.93  0.0532
893.94  0.0548
893.95  0.0565
893.96  0.0581
893.97  0.0597
893.98  0.0620
893.99  0.0637
894.00  0.0653
894.01  0.0670
894.02  0.0687
894.03  0.0703
894.04  0.0724
894.05  0.0744
894.06  0.0765
894.07  0.0785
894.08  0.0805
894.09  0.0826
894.10  0.0846
894.11  0.0867
894.12  0.0887
894.13  0.0908
894.14  0.0932
894.15  0.0957
894.16  0.0981
894.17  0.1006
894.18  0.1030
894.19  0.1055
894.20  0.1080
894.21  0.1105
894.22  0.1129
894.23  0.1154
894.24  0.1183
894.25  0.1212
894.26  0.1241
894.27  0.1270
894.28  0.1299
894.29  0.1328
894.30  0.1358
894.31  0.1387
894.32  0.1417
894.33  0.1446
894.34  0.1480
894.35  0.1513
894.36  0.1547
894.37  0.1581
894.38  0.1614
894.39  0.1648
894.40  0.1683
894.41  0.1717
894.42  0.1751
894.43  0.1785
894.44  0.1823
894.45  0.1862
894.46  0.1900
894.47  0.1938
894.48  0.1977
894.49  0.2016
894.50  0.2055
894.51  0.2094
894.52  0.2133
894.53  0.2172
894.54  0.2215
894.55  0.2258
894.56  0.2301
894.57  0.2344
894.58  0.2386
894.59  0.2430
894.60  0.2474
894.61  0.2518
894.62  0.2562
894.63  0.2605
894.64  0.2652
894.65  0.2699
894.66  0.2746
894.67  0.2793
894.68  0.2840
894.69  0.2889
894.70  0.2937
894.71  0.2985
894.72  0.3033
894.73  0.3081
894.74  0.3132
894.75  0.3183
894.76  0.3233
894.77  0.3284
894.78  0.3334
894.79  0.3386
894.80  0.3438
894.81  0.3490
894.82  0.3542
894.83  0.3594
894.84  0.3648
894.85  0.3701
894.86  0.3754
894.87  0.3807
894.88  0.3860
894.89  0.3916
894.90  0.3971
894.91  0.4026
894.92  0.4081
894.93  0.4136
894.94  0.4191
894.95  0.4246
894.96  0.4301
894.97  0.4356
894.98  0.4411
894.99  0.4468
895.00  0.4525
895.01  0.4582
895.02  0.4639
895.03  0.4697
895.04  0.4752
895.05  0.4807
895.06  0.4863
895.07  0.4918
895.08  0.4974
895.09  0.5032
895.10  0.5090
895.11  0.5149
895.12  0.5207
895.13  0.5265
895.14  0.5320
895.15  0.5375
895.16  0.5429
895.17  0.5484
895.18  0.5539
895.19  0.5597
895.20  0.5655
895.21  0.5713
895.22  0.5771
895.23  0.5829
895.24  0.5888
895.25  0.5942
895.26  0.5995
895.27  0.6049
895.28  0.6102
895.29  0.6159
895.30  0.6216
895.31  0.6273
895.32  0.6330
895.33  0.6387
895.34  0.6437
895.35  0.6488
895.36  0.6538
895.37  0.6589
895.38  0.6640
895.39  0.6694
895.40  0.6749
895.41  0.6803
895.42  0.6858
895.43  0.6912
895.44  0.6959
895.45  0.7006
895.46  0.7053
895.47  0.7100
895.48  0.7147
895.49  0.7198
895.50  0.7249
895.51  0.7300
895.52  0.7352
895.53  0.7403
895.54  0.7445
895.55  0.7488
895.56  0.7530
895.57  0.7573
895.58  0.7616
895.59  0.7663
895.60  0.7710
895.61  0.7757
895.62  0.7804
895.63  0.7851
895.64  0.7888
895.65  0.7926
895.66  0.7964
895.67  0.8002
895.68  0.8040
895.69  0.8082
895.70  0.8124
895.71  0.8167
895.72  0.8209
895.73  0.8251
895.74  0.8283
895.75  0.8316
895.76  0.8350
895.77  0.8383
895.78  0.8416
895.79  0.8453
895.80  0.8490
895.81  0.8527
895.82  0.8564
895.83  0.8601
895.84  0.8629
895.85  0.8657
895.86  0.8685
895.87  0.8714
895.88  0.8742
895.89  0.8774
895.90  0.8806
895.91  0.8837
895.92  0.8869
895.93  0.8901
895.94  0.8924
895.95  0.8948
895.96  0.8972
895.97  0.8996
895.98  0.9020
895.99  0.9047
896.00  0.9073
896.01  0.9099
896.02  0.9126
896.03  0.9152
896.04  0.9171
896.05  0.9191
896.06  0.9211
896.07  0.9232
896.08  0.9252
896.09  0.9273
896.10  0.9295
896.11  0.9316
896.12  0.9338
896.13  0.9359
896.14  0.9374
896.15  0.9391
896.16  0.9408
896.17  0.9425
896.18  0.9442
896.19  0.9458
896.20  0.9475
896.21  0.9492
896.22  0.9509
896.23  0.9525
896.24  0.9537
896.25  0.9551
896.26  0.9565
896.27  0.9580
896.28  0.9594
896.29  0.9606
896.30  0.9619
896.31  0.9631
896.32  0.9644
896.33  0.9656
896.34  0.9665
896.35  0.9677
896.36  0.9689
896.37  0.9701
896.38  0.9713
896.39  0.9722
896.40  0.9731
896.41  0.9739
896.42  0.9748
896.43  0.9757
896.44  0.9764
896.45  0.9774
896.46  0.9784
896.47  0.9794
896.48  0.9804
896.49  0.9816
896.50  0.9822
896.51  0.9827
896.52  0.9833
896.53  0.9839
896.54  0.9844
896.55  0.9853
896.56  0.9863
896.57  0.9872
896.58  0.9881
896.59  0.9884
896.60  0.9887
896.61  0.9889
896.62  0.9892
896.63  0.9895
896.64  0.9899
896.65  0.9908
896.66  0.9916
896.67  0.9924
896.68  0.9932
896.69  0.9932
896.70  0.9933
896.71  0.9934
896.72  0.9934
896.73  0.9935
896.74  0.9938
896.75  0.9945
896.76  0.9952
896.77  0.9959
896.78  0.9967
896.79  0.9965
896.80  0.9964
896.81  0.9963
896.82  0.9962
896.83  0.9961
896.84  0.9963
896.85  0.9969
896.86  0.9975
896.87  0.9982
896.88  0.9988
896.89  0.9985
896.90  0.9983
896.91  0.9980
896.92  0.9978
896.93  0.9975
896.94  0.9976
896.95  0.9982
896.96  0.9987
896.97  0.9993
896.98  0.9998
896.99  0.9994
897.00  0.9991
897.01  0.9988
897.02  0.9984
897.03  0.9981
897.04  0.9982
897.05  0.9986
897.06  0.9991
897.07  0.9995
897.08  1.0000
897.09  0.9995
897.10  0.9991
897.11  0.9988
897.12  0.9984
897.13  0.9980
897.14  0.9981
897.15  0.9984
897.16  0.9988
897.17  0.9991
897.18  0.9995
897.19  0.9990
897.20  0.9986
897.21  0.9982
897.22  0.9979
897.23  0.9975
897.24  0.9975
897.25  0.9978
897.26  0.9980
897.27  0.9983
897.28  0.9986
897.29  0.9981
897.30  0.9977
897.31  0.9974
897.32  0.9970
897.33  0.9967
897.34  0.9967
897.35  0.9969
897.36  0.9971
897.37  0.9972
897.38  0.9974
897.39  0.9969
897.40  0.9966
897.41  0.9964
897.42  0.9961
897.43  0.9958
897.44  0.9959
897.45  0.9959
897.46  0.9960
897.47  0.9961
897.48  0.9961
897.49  0.9957
897.50  0.9955
897.51  0.9953
897.52  0.9951
897.53  0.9949
897.54  0.9951
897.55  0.9950
897.56  0.9950
897.57  0.9949
897.58  0.9949
897.59  0.9945
897.60  0.9944
897.61  0.9943
897.62  0.9942
897.63  0.9941
897.64  0.9943
897.65  0.9942
897.66  0.9940
897.67  0.9939
897.68  0.9937
897.69  0.9934
897.70  0.9934
897.71  0.9934
897.72  0.9934
897.73  0.9934
897.74  0.9943
897.75  0.9941
897.76  0.9939
897.77  0.9936
897.78  0.9934
897.79  0.9932
897.80  0.9933
897.81  0.9935
897.82  0.9936
897.83  0.9937
897.84  0.9940
897.85  0.9937
897.86  0.9934
897.87  0.9931
897.88  0.9928
897.89  0.9927
897.90  0.9929
897.91  0.9931
897.92  0.9933
897.93  0.9935
897.94  0.9939
897.95  0.9935
897.96  0.9931
897.97  0.9927
897.98  0.9924
897.99  0.9922
898.00  0.9925
898.01  0.9928
898.02  0.9930
898.03  0.9933
898.04  0.9937
898.05  0.9932
898.06  0.9928
898.07  0.9924
898.08  0.9919
898.09  0.9918
898.10  0.9921
898.11  0.9924
898.12  0.9927
898.13  0.9930
898.14  0.9934
898.15  0.9930
898.16  0.9925
898.17  0.9920
898.18  0.9915
898.19  0.9914
898.20  0.9917
898.21  0.9920
898.22  0.9923
898.23  0.9927
898.24  0.9930
898.25  0.9925
898.26  0.9920
898.27  0.9915
898.28  0.9910
898.29  0.9910
898.30  0.9912
898.31  0.9915
898.32  0.9918
898.33  0.9921
898.34  0.9924
898.35  0.9920
898.36  0.9915
898.37  0.9910
898.38  0.9905
898.39  0.9904
898.40  0.9907
898.41  0.9909
898.42  0.9911
898.43  0.9914
898.44  0.9917
898.45  0.9912
898.46  0.9908
898.47  0.9903
898.48  0.9898
898.49  0.9898
898.50  0.9900
898.51  0.9902
898.52  0.9903
898.53  0.9905
898.54  0.9907
898.55  0.9903
898.56  0.9899
898.57  0.9895
898.58  0.9892
898.59  0.9891
898.60  0.9893
898.61  0.9894
898.62  0.9895
898.63  0.9896
898.64  0.9897
898.65  0.9894
898.66  0.9891
898.67  0.9888
898.68  0.9884
898.69  0.9885
898.70  0.9885
898.71  0.9885
898.72  0.9886
898.73  0.9886
898.74  0.9880
898.75  0.9878
898.76  0.9877
898.77  0.9875
898.78  0.9873
898.79  0.9874
898.80  0.9873
898.81  0.9873
898.82  0.9873
898.83  0.9872
898.84  0.9872
898.85  0.9871
898.86  0.9870
898.87  0.9869
898.88  0.9868
898.89  0.9870
898.90  0.9868
898.91  0.9867
898.92  0.9865
898.93  0.9864
898.94  0.9862
898.95  0.9862
898.96  0.9862
898.97  0.9863
898.98  0.9863
898.99  0.9871
899.00  0.9869
899.01  0.9867
899.02  0.9865
899.03  0.9862
899.04  0.9860
899.05  0.9861
899.06  0.9863
899.07  0.9864
899.08  0.9865
899.09  0.9868
899.10  0.9865
899.11  0.9862
899.12  0.9859
899.13  0.9856
899.14  0.9853
899.15  0.9856
899.16  0.9858
899.17  0.9860
899.18  0.9862
899.19  0.9865
899.20  0.9862
899.21  0.9858
899.22  0.9854
899.23  0.9850
899.24  0.9847
899.25  0.9849
899.26  0.9852
899.27  0.9855
899.28  0.9857
899.29  0.9861
899.30  0.9857
899.31  0.9853
899.32  0.9848
899.33  0.9844
899.34  0.9840
899.35  0.9843
899.36  0.9846
899.37  0.9849
899.38  0.9852
899.39  0.9855
899.40  0.9851
899.41  0.9846
899.42  0.9841
899.43  0.9836
899.44  0.9832
899.45  0.9835
899.46  0.9838
899.47  0.9841
899.48  0.9844
899.49  0.9848
899.50  0.9843
899.51  0.9838
899.52  0.9833
899.53  0.9828
899.54  0.9823
899.55  0.9826
899.56  0.9829
899.57  0.9832
899.58  0.9834
899.59  0.9838
899.60  0.9833
899.61  0.9828
899.62  0.9823
899.63  0.9818
899.64  0.9813
899.65  0.9816
899.66  0.9818
899.67  0.9821
899.68  0.9823
899.69  0.9826
899.70  0.9821
899.71  0.9817
899.72  0.9812
899.73  0.9808
899.74  0.9803
899.75  0.9805
899.76  0.9807
899.77  0.9809
899.78  0.9810
899.79  0.9812
899.80  0.9809
899.81  0.9805
899.82  0.9801
899.83  0.9797
899.84  0.9793
899.85  0.9794
899.86  0.9795
899.87  0.9796
899.88  0.9797
899.89  0.9798
899.90  0.9795
899.91  0.9792
899.92  0.9789
899.93  0.9786
899.94  0.9783
899.95  0.9783
899.96  0.9783
899.97  0.9783
899.98  0.9784
899.99  0.9778
900.00  0.9776
900.01  0.9774
900.02  0.9773
900.03  0.9771
900.04  0.9769
900.05  0.9768
900.06  0.9768
900.07  0.9768
900.08  0.9767
900.09  0.9767
900.10  0.9766
900.11  0.9765
900.12  0.9764
900.13  0.9763
900.14  0.9762
900.15  0.9761
900.16  0.9759
900.17  0.9758
900.18  0.9757
900.19  0.9755
900.20  0.9755
900.21  0.9755
900.22  0.9755
900.23  0.9755
900.24  0.9761
900.25  0.9759
900.26  0.9757
900.27  0.9755
900.28  0.9753
900.29  0.9751
900.30  0.9752
900.31  0.9753
900.32  0.9755
900.33  0.9756
900.34  0.9757
900.35  0.9754
900.36  0.9751
900.37  0.9748
900.38  0.9746
900.39  0.9743
900.40  0.9745
900.41  0.9747
900.42  0.9749
900.43  0.9751
900.44  0.9753
900.45  0.9749
900.46  0.9746
900.47  0.9742
900.48  0.9738
900.49  0.9735
900.50  0.9737
900.51  0.9740
900.52  0.9743
900.53  0.9745
900.54  0.9748
900.55  0.9744
900.56  0.9739
900.57  0.9735
900.58  0.9731
900.59  0.9727
900.60  0.9730
900.61  0.9733
900.62  0.9736
900.63  0.9739
900.64  0.9742
900.65  0.9737
900.66  0.9732
900.67  0.9728
900.68  0.9723
900.69  0.9718
900.70  0.9721
900.71  0.9724
900.72  0.9727
900.73  0.9730
900.74  0.9733
900.75  0.9729
900.76  0.9724
900.77  0.9719
900.78  0.9714
900.79  0.9709
900.80  0.9712
900.81  0.9715
900.82  0.9718
900.83  0.9720
900.84  0.9723
900.85  0.9718
900.86  0.9714
900.87  0.9709
900.88  0.9704
900.89  0.9699
900.90  0.9702
900.91  0.9704
900.92  0.9706
900.93  0.9709
900.94  0.9711
900.95  0.9707
900.96  0.9702
900.97  0.9698
900.98  0.9693
900.99  0.9689
901.00  0.9691
901.01  0.9693
901.02  0.9694
901.03  0.9696
901.04  0.9698
901.05  0.9694
901.06  0.9690
901.07  0.9686
901.08  0.9683
901.09  0.9679
901.10  0.9680
901.11  0.9681
901.12  0.9682
901.13  0.9683
901.14  0.9684
901.15  0.9681
901.16  0.9678
901.17  0.9675
901.18  0.9672
901.19  0.9669
901.20  0.9669
901.21  0.9669
901.22  0.9670
901.23  0.9670
901.24  0.9670
901.25  0.9662
901.26  0.9660
901.27  0.9658
901.28  0.9657
901.29  0.9655
901.30  0.9654
901.31  0.9654
901.32  0.9654
901.33  0.9653
901.34  0.9653
901.35  0.9652
901.36  0.9651
901.37  0.9650
901.38  0.9649
901.39  0.9648
901.40  0.9647
901.41  0.9645
901.42  0.9644
901.43  0.9642
901.44  0.9641
901.45  0.9641
901.46  0.9641
901.47  0.9641
901.48  0.9641
901.49  0.9647
901.50  0.9645
901.51  0.9643
901.52  0.9641
901.53  0.9639
901.54  0.9637
901.55  0.9638
901.56  0.9639
901.57  0.9641
901.58  0.9642
901.59  0.9643
901.60  0.9640
901.61  0.9637
901.62  0.9634
901.63  0.9631
901.64  0.9629
901.65  0.9631
901.66  0.9633
901.67  0.9635
901.68  0.9637
901.69  0.9639
901.70  0.9635
901.71  0.9631
901.72  0.9628
901.73  0.9624
901.74  0.9621
901.75  0.9623
901.76  0.9626
901.77  0.9628
901.78  0.9631
901.79  0.9634
901.80  0.9629
901.81  0.9625
901.82  0.9621
901.83  0.9617
901.84  0.9613
901.85  0.9616
901.86  0.9619
901.87  0.9621
901.88  0.9624
901.89  0.9627
901.90  0.9623
901.91  0.9618
901.92  0.9613
901.93  0.9609
901.94  0.9604
901.95  0.9607
901.96  0.9610
901.97  0.9613
901.98  0.9616
901.99  0.9619
902.00  0.9614
902.01  0.9610
902.02  0.9605
902.03  0.9600
902.04  0.9595
902.05  0.9598
902.06  0.9601
902.07  0.9603
902.08  0.9606
902.09  0.9609
902.10  0.9604
902.11  0.9600
902.12  0.9595
902.13  0.9590
902.14  0.9585
902.15  0.9588
902.16  0.9590
902.17  0.9592
902.18  0.9595
902.19  0.9597
902.20  0.9593
902.21  0.9588
902.22  0.9584
902.23  0.9580
902.24  0.9575
902.25  0.9577
902.26  0.9579
902.27  0.9580
902.28  0.9582
902.29  0.9584
902.30  0.9580
902.31  0.9576
902.32  0.9572
902.33  0.9569
902.34  0.9565
902.35  0.9566
902.36  0.9567
902.37  0.9568
902.38  0.9569
902.39  0.9570
902.40  0.9567
902.41  0.9564
902.42  0.9561
902.43  0.9558
902.44  0.9555
902.45  0.9555
902.46  0.9555
902.47  0.9556
902.48  0.9556
902.49  0.9556
902.50  0.9548
902.51  0.9547
902.52  0.9545
902.53  0.9543
902.54  0.9541
902.55  0.9541
902.56  0.9540
902.57  0.9540
902.58  0.9539
902.59  0.9539
902.60  0.9538
902.61  0.9537
902.62  0.9536
902.63  0.9535
902.64  0.9534
902.65  0.9533
902.66  0.9532
902.67  0.9530
902.68  0.9529
902.69  0.9527
902.70  0.9527
902.71  0.9527
902.72  0.9528
902.73  0.9528
902.74  0.9528
902.75  0.9525
902.76  0.9523
902.77  0.9520
902.78  0.9518
902.79  0.9516
902.80  0.9516
902.81  0.9517
902.82  0.9518
902.83  0.9519
902.84  0.9520
902.85  0.9517
902.86  0.9513
902.87  0.9510
902.88  0.9506
902.89  0.9503
902.90  0.9505
902.91  0.9506
902.92  0.9508
902.93  0.9509
902.94  0.9511
902.95  0.9506
902.96  0.9502
902.97  0.9498
902.98  0.9493
902.99  0.9489
903.00  0.9491
903.01  0.9493
903.02  0.9494
903.03  0.9496
903.04  0.9498
903.05  0.9493
903.06  0.9488
903.07  0.9482
903.08  0.9477
903.09  0.9472
903.10  0.9474
903.11  0.9475
903.12  0.9477
903.13  0.9479
903.14  0.9481
903.15  0.9475
903.16  0.9468
903.17  0.9462
903.18  0.9456
903.19  0.9450
903.20  0.9451
903.21  0.9453
903.22  0.9454
903.23  0.9456
903.24  0.9457
903.25  0.9450
903.26  0.9443
903.27  0.9436
903.28  0.9429
903.29  0.9422
903.30  0.9423
903.31  0.9423
903.32  0.9424
903.33  0.9424
903.34  0.9425
903.35  0.9417
903.36  0.9409
903.37  0.9402
903.38  0.9394
903.39  0.9386
903.40  0.9386
903.41  0.9385
903.42  0.9384
903.43  0.9383
903.44  0.9383
903.45  0.9374
903.46  0.9366
903.47  0.9357
903.48  0.9349
903.49  0.9340
903.50  0.9338
903.51  0.9335
903.52  0.9333
903.53  0.9331
903.54  0.9328
903.55  0.9319
903.56  0.9309
903.57  0.9300
903.58  0.9291
903.59  0.9281
903.60  0.9277
903.61  0.9272
903.62  0.9268
903.63  0.9263
903.64  0.9259
903.65  0.9249
903.66  0.9238
903.67  0.9228
903.68  0.9218
903.69  0.9207
903.70  0.9200
903.71  0.9193
903.72  0.9186
903.73  0.9179
903.74  0.9172
903.75  0.9155
903.76  0.9144
903.77  0.9133
903.78  0.9121
903.79  0.9110
903.80  0.9100
903.81  0.9090
903.82  0.9081
903.83  0.9071
903.84  0.9061
903.85  0.9048
903.86  0.9035
903.87  0.9023
903.88  0.9010
903.89  0.8997
903.90  0.8983
903.91  0.8970
903.92  0.8957
903.93  0.8944
903.94  0.8930
903.95  0.8915
903.96  0.8901
903.97  0.8886
903.98  0.8871
903.99  0.8856
904.00  0.8839
904.01  0.8822
904.02  0.8804
904.03  0.8787
904.04  0.8770
904.05  0.8753
904.06  0.8735
904.07  0.8718
904.08  0.8701
904.09  0.8683
904.10  0.8662
904.11  0.8640
904.12  0.8619
904.13  0.8597
904.14  0.8576
904.15  0.8555
904.16  0.8535
904.17  0.8515
904.18  0.8494
904.19  0.8474
904.20  0.8448
904.21  0.8422
904.22  0.8396
904.23  0.8370
904.24  0.8344
904.25  0.8320
904.26  0.8296
904.27  0.8272
904.28  0.8248
904.29  0.8225
904.30  0.8194
904.31  0.8163
904.32  0.8132
904.33  0.8101
904.34  0.8071
904.35  0.8043
904.36  0.8015
904.37  0.7987
904.38  0.7959
904.39  0.7932
904.40  0.7896
904.41  0.7860
904.42  0.7825
904.43  0.7789
904.44  0.7754
904.45  0.7722
904.46  0.7690
904.47  0.7658
904.48  0.7626
904.49  0.7594
904.50  0.7554
904.51  0.7513
904.52  0.7473
904.53  0.7433
904.54  0.7393
904.55  0.7356
904.56  0.7320
904.57  0.7284
904.58  0.7248
904.59  0.7211
904.60  0.7167
904.61  0.7122
904.62  0.7078
904.63  0.7033
904.64  0.6989
904.65  0.6949
904.66  0.6908
904.67  0.6868
904.68  0.6827
904.69  0.6787
904.70  0.6739
904.71  0.6690
904.72  0.6642
904.73  0.6594
904.74  0.6546
904.75  0.6502
904.76  0.6458
904.77  0.6413
904.78  0.6369
904.79  0.6325
904.80  0.6274
904.81  0.6223
904.82  0.6172
904.83  0.6121
904.84  0.6070
904.85  0.6022
904.86  0.5975
904.87  0.5927
904.88  0.5880
904.89  0.5833
904.90  0.5780
904.91  0.5726
904.92  0.5673
904.93  0.5620
904.94  0.5567
904.95  0.5518
904.96  0.5468
904.97  0.5418
904.98  0.5368
904.99  0.5319
905.00  0.5259
905.01  0.5205
905.02  0.5152
905.03  0.5098
905.04  0.5044
905.05  0.4993
905.06  0.4942
905.07  0.4891
905.08  0.4840
905.09  0.4790
905.10  0.4736
905.11  0.4682
905.12  0.4628
905.13  0.4574
905.14  0.4521
905.15  0.4469
905.16  0.4418
905.17  0.4367
905.18  0.4316
905.19  0.4264
905.20  0.4212
905.21  0.4159
905.22  0.4106
905.23  0.4054
905.24  0.4001
905.25  0.3950
905.26  0.3900
905.27  0.3849
905.28  0.3799
905.29  0.3748
905.30  0.3698
905.31  0.3647
905.32  0.3596
905.33  0.3546
905.34  0.3495
905.35  0.3446
905.36  0.3398
905.37  0.3349
905.38  0.3300
905.39  0.3251
905.40  0.3204
905.41  0.3156
905.42  0.3108
905.43  0.3061
905.44  0.3013
905.45  0.2967
905.46  0.2921
905.47  0.2874
905.48  0.2828
905.49  0.2782
905.50  0.2738
905.51  0.2694
905.52  0.2650
905.53  0.2606
905.54  0.2562
905.55  0.2519
905.56  0.2476
905.57  0.2433
905.58  0.2391
905.59  0.2348
905.60  0.2308
905.61  0.2268
905.62  0.2228
905.63  0.2188
905.64  0.2148
905.65  0.2109
905.66  0.2070
905.67  0.2031
905.68  0.1992
905.69  0.1954
905.70  0.1918
905.71  0.1883
905.72  0.1847
905.73  0.1812
905.74  0.1776
905.75  0.1741
905.76  0.1707
905.77  0.1672
905.78  0.1637
905.79  0.1602
905.80  0.1571
905.81  0.1540
905.82  0.1510
905.83  0.1479
905.84  0.1448
905.85  0.1417
905.86  0.1387
905.87  0.1356
905.88  0.1326
905.89  0.1295
905.90  0.1269
905.91  0.1242
905.92  0.1216
905.93  0.1189
905.94  0.1163
905.95  0.1137
905.96  0.1111
905.97  0.1084
905.98  0.1058
905.99  0.1032
906.00  0.1010
906.01  0.0987
906.02  0.0965
906.03  0.0943
906.04  0.0921
906.05  0.0898
906.06  0.0876
906.07  0.0854
906.08  0.0832
906.09  0.0810
906.10  0.0792
906.11  0.0773
906.12  0.0755
906.13  0.0736
906.14  0.0718
906.15  0.0700
906.16  0.0681
906.17  0.0663
906.18  0.0645
906.19  0.0627
906.20  0.0612
906.21  0.0597
906.22  0.0582
906.23  0.0567
906.24  0.0552
906.25  0.0531
906.26  0.0517
906.27  0.0502
906.28  0.0488
906.29  0.0473
906.30  0.0461
906.31  0.0449
906.32  0.0438
906.33  0.0426
906.34  0.0414
906.35  0.0403
906.36  0.0391
906.37  0.0379
906.38  0.0367
906.39  0.0356
906.40  0.0346
906.41  0.0337
906.42  0.0328
906.43  0.0319
906.44  0.0309
906.45  0.0300
906.46  0.0291
906.47  0.0282
906.48  0.0273
906.49  0.0263
906.50  0.0256
906.51  0.0249
906.52  0.0242
906.53  0.0235
906.54  0.0228
906.55  0.0221
906.56  0.0213
906.57  0.0206
906.58  0.0199
906.59  0.0192
906.60  0.0187
906.61  0.0181
906.62  0.0176
906.63  0.0170
906.64  0.0165
906.65  0.0159
906.66  0.0154
906.67  0.0149
906.68  0.0143
906.69  0.0138
906.70  0.0134
906.71  0.0130
906.72  0.0126
906.73  0.0122
906.74  0.0118
906.75  0.0114
906.76  0.0110
906.77  0.0106
906.78  0.0102
906.79  0.0097
906.80  0.0095
906.81  0.0092
906.82  0.0089
906.83  0.0086
906.84  0.0083
906.85  0.0080
906.86  0.0077
906.87  0.0074
906.88  0.0071
906.89  0.0068
906.90  0.0066
906.91  0.0064
906.92  0.0061
906.93  0.0059
906.94  0.0057
906.95  0.0055
906.96  0.0053
906.97  0.0051
906.98  0.0049
906.99  0.0047
907.00  0.0045
907.01  0.0044
907.02  0.0042
907.03  0.0040
907.04  0.0039
907.05  0.0037
907.06  0.0036
907.07  0.0034
907.08  0.0033
907.09  0.0031
907.10  0.0030
907.11  0.0029
907.12  0.0028
907.13  0.0027
907.14  0.0026
907.15  0.0025
907.16  0.0024
907.17  0.0023
907.18  0.0022
907.19  0.0021
907.20  0.0020
907.21  0.0019
907.22  0.0019
907.23  0.0018
907.24  0.0017
907.25  0.0017
907.26  0.0016
907.27  0.0015
907.28  0.0014
907.29  0.0014
907.30  0.0013
907.31  0.0013
907.32  0.0012
907.33  0.0012
907.34  0.0011
907.35  0.0011
907.36  0.0010
907.37  0.0010
907.38  0.0009
907.39  0.0009
907.40  0.0009
907.41  0.0008
907.42  0.0008
907.43  0.0008
907.44  0.0007
907.45  0.0007
907.46  0.0007
907.47  0.0006
907.48  0.0006
907.49  0.0006
