# Provided by ESA in 10/2012
# Important Notes:
# The data contained here correspond to the OLCI Spectral Model CDR derived in 2011.
# The data have been calculated for the camera 4, pointing nadir.
404.73  0.0005
404.74  0.0005
404.75  0.0006
404.76  0.0006
404.77  0.0006
404.78  0.0007
404.79  0.0007
404.80  0.0007
404.81  0.0008
404.82  0.0008
404.83  0.0008
404.84  0.0009
404.85  0.0009
404.86  0.0010
404.87  0.0010
404.88  0.0010
404.89  0.0011
404.90  0.0011
404.91  0.0012
404.92  0.0012
404.93  0.0013
404.94  0.0013
404.95  0.0014
404.96  0.0015
404.97  0.0015
404.98  0.0016
404.99  0.0017
405.00  0.0017
405.01  0.0018
405.02  0.0019
405.03  0.0019
405.04  0.0020
405.05  0.0021
405.06  0.0022
405.07  0.0023
405.08  0.0024
405.09  0.0025
405.10  0.0026
405.11  0.0027
405.12  0.0028
405.13  0.0029
405.14  0.0031
405.15  0.0032
405.16  0.0033
405.17  0.0035
405.18  0.0036
405.19  0.0038
405.20  0.0039
405.21  0.0040
405.22  0.0042
405.23  0.0043
405.24  0.0045
405.25  0.0047
405.26  0.0049
405.27  0.0051
405.28  0.0053
405.29  0.0055
405.30  0.0057
405.31  0.0059
405.32  0.0061
405.33  0.0063
405.34  0.0066
405.35  0.0069
405.36  0.0071
405.37  0.0074
405.38  0.0077
405.39  0.0080
405.40  0.0082
405.41  0.0085
405.42  0.0088
405.43  0.0091
405.44  0.0094
405.45  0.0098
405.46  0.0102
405.47  0.0106
405.48  0.0109
405.49  0.0113
405.50  0.0117
405.51  0.0121
405.52  0.0125
405.53  0.0128
405.54  0.0133
405.55  0.0138
405.56  0.0143
405.57  0.0149
405.58  0.0154
405.59  0.0159
405.60  0.0164
405.61  0.0169
405.62  0.0174
405.63  0.0179
405.64  0.0186
405.65  0.0192
405.66  0.0199
405.67  0.0206
405.68  0.0212
405.69  0.0219
405.70  0.0226
405.71  0.0232
405.72  0.0239
405.73  0.0246
405.74  0.0254
405.75  0.0263
405.76  0.0271
405.77  0.0280
405.78  0.0289
405.79  0.0297
405.80  0.0306
405.81  0.0315
405.82  0.0323
405.83  0.0332
405.84  0.0343
405.85  0.0354
405.86  0.0365
405.87  0.0376
405.88  0.0387
405.89  0.0398
405.90  0.0409
405.91  0.0420
405.92  0.0431
405.93  0.0442
405.94  0.0456
405.95  0.0470
405.96  0.0483
405.97  0.0502
405.98  0.0516
405.99  0.0530
406.00  0.0545
406.01  0.0559
406.02  0.0573
406.03  0.0587
406.04  0.0604
406.05  0.0621
406.06  0.0638
406.07  0.0655
406.08  0.0673
406.09  0.0690
406.10  0.0707
406.11  0.0725
406.12  0.0742
406.13  0.0759
406.14  0.0780
406.15  0.0801
406.16  0.0822
406.17  0.0842
406.18  0.0863
406.19  0.0884
406.20  0.0905
406.21  0.0926
406.22  0.0948
406.23  0.0969
406.24  0.0993
406.25  0.1018
406.26  0.1042
406.27  0.1067
406.28  0.1092
406.29  0.1117
406.30  0.1142
406.31  0.1167
406.32  0.1192
406.33  0.1217
406.34  0.1246
406.35  0.1275
406.36  0.1303
406.37  0.1332
406.38  0.1361
406.39  0.1390
406.40  0.1420
406.41  0.1449
406.42  0.1478
406.43  0.1507
406.44  0.1540
406.45  0.1573
406.46  0.1606
406.47  0.1639
406.48  0.1672
406.49  0.1706
406.50  0.1739
406.51  0.1773
406.52  0.1806
406.53  0.1840
406.54  0.1877
406.55  0.1913
406.56  0.1950
406.57  0.1987
406.58  0.2025
406.59  0.2063
406.60  0.2100
406.61  0.2138
406.62  0.2176
406.63  0.2214
406.64  0.2254
406.65  0.2295
406.66  0.2336
406.67  0.2376
406.68  0.2418
406.69  0.2460
406.70  0.2501
406.71  0.2543
406.72  0.2585
406.73  0.2627
406.74  0.2670
406.75  0.2714
406.76  0.2758
406.77  0.2802
406.78  0.2847
406.79  0.2892
406.80  0.2938
406.81  0.2983
406.82  0.3028
406.83  0.3073
406.84  0.3120
406.85  0.3166
406.86  0.3213
406.87  0.3259
406.88  0.3307
406.89  0.3355
406.90  0.3403
406.91  0.3452
406.92  0.3500
406.93  0.3548
406.94  0.3596
406.95  0.3644
406.96  0.3692
406.97  0.3740
406.98  0.3791
406.99  0.3841
407.00  0.3891
407.01  0.3941
407.02  0.3992
407.03  0.4042
407.04  0.4091
407.05  0.4140
407.06  0.4188
407.07  0.4237
407.08  0.4289
407.09  0.4340
407.10  0.4391
407.11  0.4443
407.12  0.4494
407.13  0.4546
407.14  0.4594
407.15  0.4643
407.16  0.4692
407.17  0.4740
407.18  0.4792
407.19  0.4843
407.20  0.4895
407.21  0.4952
407.22  0.5003
407.23  0.5055
407.24  0.5103
407.25  0.5151
407.26  0.5198
407.27  0.5246
407.28  0.5297
407.29  0.5348
407.30  0.5399
407.31  0.5449
407.32  0.5501
407.33  0.5552
407.34  0.5597
407.35  0.5643
407.36  0.5688
407.37  0.5734
407.38  0.5783
407.39  0.5832
407.40  0.5881
407.41  0.5930
407.42  0.5980
407.43  0.6029
407.44  0.6072
407.45  0.6114
407.46  0.6157
407.47  0.6200
407.48  0.6246
407.49  0.6292
407.50  0.6339
407.51  0.6385
407.52  0.6432
407.53  0.6479
407.54  0.6518
407.55  0.6557
407.56  0.6596
407.57  0.6635
407.58  0.6678
407.59  0.6721
407.60  0.6764
407.61  0.6807
407.62  0.6851
407.63  0.6894
407.64  0.6929
407.65  0.6965
407.66  0.7000
407.67  0.7035
407.68  0.7074
407.69  0.7113
407.70  0.7152
407.71  0.7191
407.72  0.7231
407.73  0.7271
407.74  0.7302
407.75  0.7333
407.76  0.7365
407.77  0.7396
407.78  0.7431
407.79  0.7465
407.80  0.7500
407.81  0.7535
407.82  0.7570
407.83  0.7606
407.84  0.7633
407.85  0.7660
407.86  0.7688
407.87  0.7715
407.88  0.7745
407.89  0.7775
407.90  0.7806
407.91  0.7836
407.92  0.7867
407.93  0.7898
407.94  0.7922
407.95  0.7946
407.96  0.7969
407.97  0.7993
407.98  0.8018
407.99  0.8044
408.00  0.8070
408.01  0.8096
408.02  0.8123
408.03  0.8150
408.04  0.8170
408.05  0.8190
408.06  0.8211
408.07  0.8231
408.08  0.8252
408.09  0.8274
408.10  0.8295
408.11  0.8317
408.12  0.8340
408.13  0.8363
408.14  0.8380
408.15  0.8398
408.16  0.8415
408.17  0.8433
408.18  0.8450
408.19  0.8468
408.20  0.8485
408.21  0.8502
408.22  0.8522
408.23  0.8541
408.24  0.8556
408.25  0.8571
408.26  0.8587
408.27  0.8602
408.28  0.8615
408.29  0.8629
408.30  0.8643
408.31  0.8656
408.32  0.8673
408.33  0.8689
408.34  0.8702
408.35  0.8715
408.36  0.8728
408.37  0.8742
408.38  0.8752
408.39  0.8762
408.40  0.8773
408.41  0.8783
408.42  0.8796
408.43  0.8809
408.44  0.8821
408.45  0.8838
408.46  0.8850
408.47  0.8862
408.48  0.8870
408.49  0.8878
408.50  0.8886
408.51  0.8893
408.52  0.8904
408.53  0.8915
408.54  0.8926
408.55  0.8937
408.56  0.8948
408.57  0.8959
408.58  0.8964
408.59  0.8969
408.60  0.8975
408.61  0.8980
408.62  0.8989
408.63  0.8997
408.64  0.9007
408.65  0.9017
408.66  0.9027
408.67  0.9038
408.68  0.9041
408.69  0.9044
408.70  0.9047
408.71  0.9051
408.72  0.9058
408.73  0.9065
408.74  0.9074
408.75  0.9083
408.76  0.9092
408.77  0.9102
408.78  0.9104
408.79  0.9105
408.80  0.9107
408.81  0.9108
408.82  0.9114
408.83  0.9119
408.84  0.9128
408.85  0.9136
408.86  0.9145
408.87  0.9154
408.88  0.9154
408.89  0.9155
408.90  0.9155
408.91  0.9156
408.92  0.9160
408.93  0.9164
408.94  0.9172
408.95  0.9180
408.96  0.9188
408.97  0.9196
408.98  0.9196
408.99  0.9195
409.00  0.9195
409.01  0.9195
409.02  0.9198
409.03  0.9201
409.04  0.9208
409.05  0.9215
409.06  0.9222
409.07  0.9230
409.08  0.9229
409.09  0.9228
409.10  0.9228
409.11  0.9227
409.12  0.9229
409.13  0.9231
409.14  0.9237
409.15  0.9243
409.16  0.9250
409.17  0.9258
409.18  0.9257
409.19  0.9256
409.20  0.9255
409.21  0.9254
409.22  0.9256
409.23  0.9257
409.24  0.9262
409.25  0.9267
409.26  0.9274
409.27  0.9280
409.28  0.9280
409.29  0.9280
409.30  0.9279
409.31  0.9279
409.32  0.9279
409.33  0.9280
409.34  0.9284
409.35  0.9288
409.36  0.9294
409.37  0.9300
409.38  0.9300
409.39  0.9300
409.40  0.9301
409.41  0.9301
409.42  0.9301
409.43  0.9301
409.44  0.9304
409.45  0.9307
409.46  0.9313
409.47  0.9318
409.48  0.9319
409.49  0.9320
409.50  0.9321
409.51  0.9322
409.52  0.9321
409.53  0.9321
409.54  0.9323
409.55  0.9325
409.56  0.9330
409.57  0.9335
409.58  0.9337
409.59  0.9339
409.60  0.9341
409.61  0.9343
409.62  0.9341
409.63  0.9340
409.64  0.9342
409.65  0.9343
409.66  0.9347
409.67  0.9352
409.68  0.9354
409.69  0.9363
409.70  0.9366
409.71  0.9369
409.72  0.9368
409.73  0.9366
409.74  0.9367
409.75  0.9368
409.76  0.9372
409.77  0.9376
409.78  0.9380
409.79  0.9384
409.80  0.9388
409.81  0.9392
409.82  0.9390
409.83  0.9388
409.84  0.9388
409.85  0.9388
409.86  0.9392
409.87  0.9395
409.88  0.9400
409.89  0.9405
409.90  0.9410
409.91  0.9415
409.92  0.9413
409.93  0.9410
409.94  0.9410
409.95  0.9409
409.96  0.9412
409.97  0.9415
409.98  0.9420
409.99  0.9426
410.00  0.9431
410.01  0.9437
410.02  0.9434
410.03  0.9432
410.04  0.9431
410.05  0.9429
410.06  0.9432
410.07  0.9435
410.08  0.9440
410.09  0.9446
410.10  0.9452
410.11  0.9458
410.12  0.9455
410.13  0.9453
410.14  0.9451
410.15  0.9449
410.16  0.9451
410.17  0.9454
410.18  0.9459
410.19  0.9465
410.20  0.9471
410.21  0.9478
410.22  0.9475
410.23  0.9472
410.24  0.9470
410.25  0.9469
410.26  0.9470
410.27  0.9472
410.28  0.9477
410.29  0.9483
410.30  0.9489
410.31  0.9495
410.32  0.9493
410.33  0.9491
410.34  0.9489
410.35  0.9487
410.36  0.9488
410.37  0.9489
410.38  0.9494
410.39  0.9499
410.40  0.9506
410.41  0.9512
410.42  0.9510
410.43  0.9508
410.44  0.9506
410.45  0.9505
410.46  0.9505
410.47  0.9506
410.48  0.9511
410.49  0.9515
410.50  0.9521
410.51  0.9527
410.52  0.9526
410.53  0.9524
410.54  0.9523
410.55  0.9522
410.56  0.9523
410.57  0.9523
410.58  0.9527
410.59  0.9530
410.60  0.9536
410.61  0.9542
410.62  0.9541
410.63  0.9541
410.64  0.9541
410.65  0.9540
410.66  0.9540
410.67  0.9540
410.68  0.9543
410.69  0.9546
410.70  0.9551
410.71  0.9556
410.72  0.9557
410.73  0.9557
410.74  0.9552
410.75  0.9553
410.76  0.9553
410.77  0.9552
410.78  0.9555
410.79  0.9557
410.80  0.9562
410.81  0.9567
410.82  0.9569
410.83  0.9571
410.84  0.9572
410.85  0.9574
410.86  0.9573
410.87  0.9572
410.88  0.9573
410.89  0.9575
410.90  0.9579
410.91  0.9583
410.92  0.9586
410.93  0.9595
410.94  0.9598
410.95  0.9601
410.96  0.9600
410.97  0.9598
410.98  0.9599
410.99  0.9600
411.00  0.9604
411.01  0.9608
411.02  0.9612
411.03  0.9616
411.04  0.9620
411.05  0.9625
411.06  0.9623
411.07  0.9621
411.08  0.9621
411.09  0.9621
411.10  0.9624
411.11  0.9628
411.12  0.9633
411.13  0.9638
411.14  0.9643
411.15  0.9648
411.16  0.9645
411.17  0.9643
411.18  0.9642
411.19  0.9642
411.20  0.9645
411.21  0.9648
411.22  0.9653
411.23  0.9659
411.24  0.9665
411.25  0.9670
411.26  0.9668
411.27  0.9665
411.28  0.9664
411.29  0.9663
411.30  0.9665
411.31  0.9668
411.32  0.9674
411.33  0.9679
411.34  0.9686
411.35  0.9692
411.36  0.9689
411.37  0.9686
411.38  0.9685
411.39  0.9683
411.40  0.9685
411.41  0.9687
411.42  0.9693
411.43  0.9699
411.44  0.9705
411.45  0.9712
411.46  0.9709
411.47  0.9706
411.48  0.9704
411.49  0.9702
411.50  0.9704
411.51  0.9706
411.52  0.9711
411.53  0.9717
411.54  0.9723
411.55  0.9730
411.56  0.9727
411.57  0.9725
411.58  0.9723
411.59  0.9721
411.60  0.9722
411.61  0.9723
411.62  0.9728
411.63  0.9734
411.64  0.9740
411.65  0.9746
411.66  0.9744
411.67  0.9742
411.68  0.9741
411.69  0.9739
411.70  0.9740
411.71  0.9740
411.72  0.9745
411.73  0.9750
411.74  0.9756
411.75  0.9762
411.76  0.9760
411.77  0.9759
411.78  0.9758
411.79  0.9757
411.80  0.9757
411.81  0.9757
411.82  0.9761
411.83  0.9765
411.84  0.9771
411.85  0.9777
411.86  0.9776
411.87  0.9776
411.88  0.9775
411.89  0.9775
411.90  0.9775
411.91  0.9774
411.92  0.9778
411.93  0.9781
411.94  0.9786
411.95  0.9791
411.96  0.9792
411.97  0.9792
411.98  0.9787
411.99  0.9788
412.00  0.9788
412.01  0.9787
412.02  0.9789
412.03  0.9792
412.04  0.9797
412.05  0.9802
412.06  0.9804
412.07  0.9806
412.08  0.9808
412.09  0.9810
412.10  0.9808
412.11  0.9807
412.12  0.9809
412.13  0.9810
412.14  0.9814
412.15  0.9819
412.16  0.9822
412.17  0.9831
412.18  0.9834
412.19  0.9837
412.20  0.9836
412.21  0.9834
412.22  0.9835
412.23  0.9836
412.24  0.9840
412.25  0.9844
412.26  0.9848
412.27  0.9852
412.28  0.9856
412.29  0.9861
412.30  0.9859
412.31  0.9857
412.32  0.9857
412.33  0.9857
412.34  0.9860
412.35  0.9864
412.36  0.9869
412.37  0.9874
412.38  0.9879
412.39  0.9884
412.40  0.9882
412.41  0.9880
412.42  0.9879
412.43  0.9878
412.44  0.9881
412.45  0.9884
412.46  0.9890
412.47  0.9895
412.48  0.9901
412.49  0.9907
412.50  0.9905
412.51  0.9902
412.52  0.9901
412.53  0.9899
412.54  0.9902
412.55  0.9905
412.56  0.9910
412.57  0.9916
412.58  0.9923
412.59  0.9929
412.60  0.9926
412.61  0.9923
412.62  0.9922
412.63  0.9920
412.64  0.9922
412.65  0.9924
412.66  0.9930
412.67  0.9936
412.68  0.9943
412.69  0.9949
412.70  0.9946
412.71  0.9944
412.72  0.9942
412.73  0.9940
412.74  0.9941
412.75  0.9943
412.76  0.9949
412.77  0.9954
412.78  0.9961
412.79  0.9968
412.80  0.9965
412.81  0.9963
412.82  0.9961
412.83  0.9959
412.84  0.9960
412.85  0.9961
412.86  0.9966
412.87  0.9971
412.88  0.9978
412.89  0.9984
412.90  0.9982
412.91  0.9980
412.92  0.9979
412.93  0.9977
412.94  0.9978
412.95  0.9978
412.96  0.9983
412.97  0.9988
412.98  0.9994
412.99  1.0000
413.00  0.9999
413.01  0.9995
413.02  0.9992
413.03  0.9989
413.04  0.9986
413.05  0.9984
413.06  0.9986
413.07  0.9988
413.08  0.9992
413.09  0.9995
413.10  0.9993
413.11  0.9990
413.12  0.9988
413.13  0.9985
413.14  0.9982
413.15  0.9980
413.16  0.9981
413.17  0.9982
413.18  0.9985
413.19  0.9988
413.20  0.9987
413.21  0.9985
413.22  0.9978
413.23  0.9976
413.24  0.9974
413.25  0.9971
413.26  0.9971
413.27  0.9971
413.28  0.9974
413.29  0.9977
413.30  0.9977
413.31  0.9977
413.32  0.9976
413.33  0.9976
413.34  0.9973
413.35  0.9969
413.36  0.9968
413.37  0.9968
413.38  0.9970
413.39  0.9972
413.40  0.9973
413.41  0.9980
413.42  0.9981
413.43  0.9982
413.44  0.9978
413.45  0.9975
413.46  0.9973
413.47  0.9972
413.48  0.9974
413.49  0.9976
413.50  0.9978
413.51  0.9980
413.52  0.9982
413.53  0.9984
413.54  0.9980
413.55  0.9976
413.56  0.9973
413.57  0.9971
413.58  0.9972
413.59  0.9974
413.60  0.9977
413.61  0.9980
413.62  0.9983
413.63  0.9986
413.64  0.9981
413.65  0.9977
413.66  0.9974
413.67  0.9970
413.68  0.9972
413.69  0.9973
413.70  0.9976
413.71  0.9979
413.72  0.9983
413.73  0.9987
413.74  0.9982
413.75  0.9977
413.76  0.9973
413.77  0.9970
413.78  0.9970
413.79  0.9971
413.80  0.9974
413.81  0.9978
413.82  0.9982
413.83  0.9987
413.84  0.9982
413.85  0.9977
413.86  0.9973
413.87  0.9968
413.88  0.9968
413.89  0.9968
413.90  0.9972
413.91  0.9976
413.92  0.9980
413.93  0.9985
413.94  0.9980
413.95  0.9975
413.96  0.9971
413.97  0.9966
413.98  0.9966
413.99  0.9965
414.00  0.9969
414.01  0.9972
414.02  0.9977
414.03  0.9981
414.04  0.9976
414.05  0.9972
414.06  0.9967
414.07  0.9963
414.08  0.9962
414.09  0.9961
414.10  0.9964
414.11  0.9967
414.12  0.9972
414.13  0.9976
414.14  0.9972
414.15  0.9967
414.16  0.9963
414.17  0.9960
414.18  0.9958
414.19  0.9956
414.20  0.9959
414.21  0.9961
414.22  0.9965
414.23  0.9969
414.24  0.9966
414.25  0.9962
414.26  0.9959
414.27  0.9956
414.28  0.9954
414.29  0.9952
414.30  0.9953
414.31  0.9955
414.32  0.9959
414.33  0.9962
414.34  0.9960
414.35  0.9957
414.36  0.9954
414.37  0.9952
414.38  0.9949
414.39  0.9947
414.40  0.9948
414.41  0.9949
414.42  0.9952
414.43  0.9955
414.44  0.9953
414.45  0.9952
414.46  0.9944
414.47  0.9943
414.48  0.9940
414.49  0.9937
414.50  0.9938
414.51  0.9938
414.52  0.9941
414.53  0.9944
414.54  0.9943
414.55  0.9943
414.56  0.9943
414.57  0.9943
414.58  0.9939
414.59  0.9936
414.60  0.9935
414.61  0.9934
414.62  0.9936
414.63  0.9939
414.64  0.9939
414.65  0.9940
414.66  0.9941
414.67  0.9941
414.68  0.9937
414.69  0.9933
414.70  0.9932
414.71  0.9930
414.72  0.9931
414.73  0.9933
414.74  0.9935
414.75  0.9936
414.76  0.9938
414.77  0.9939
414.78  0.9935
414.79  0.9930
414.80  0.9927
414.81  0.9924
414.82  0.9925
414.83  0.9926
414.84  0.9928
414.85  0.9931
414.86  0.9933
414.87  0.9935
414.88  0.9930
414.89  0.9924
414.90  0.9921
414.91  0.9917
414.92  0.9917
414.93  0.9917
414.94  0.9920
414.95  0.9922
414.96  0.9925
414.97  0.9927
414.98  0.9922
414.99  0.9916
415.00  0.9911
415.01  0.9906
415.02  0.9905
415.03  0.9905
415.04  0.9907
415.05  0.9910
415.06  0.9912
415.07  0.9915
415.08  0.9908
415.09  0.9902
415.10  0.9896
415.11  0.9890
415.12  0.9889
415.13  0.9887
415.14  0.9889
415.15  0.9891
415.16  0.9893
415.17  0.9895
415.18  0.9888
415.19  0.9881
415.20  0.9874
415.21  0.9868
415.22  0.9865
415.23  0.9862
415.24  0.9863
415.25  0.9864
415.26  0.9866
415.27  0.9867
415.28  0.9859
415.29  0.9851
415.30  0.9844
415.31  0.9836
415.32  0.9832
415.33  0.9828
415.34  0.9828
415.35  0.9828
415.36  0.9827
415.37  0.9827
415.38  0.9819
415.39  0.9810
415.40  0.9802
415.41  0.9794
415.42  0.9788
415.43  0.9782
415.44  0.9780
415.45  0.9778
415.46  0.9776
415.47  0.9775
415.48  0.9765
415.49  0.9756
415.50  0.9747
415.51  0.9738
415.52  0.9730
415.53  0.9722
415.54  0.9718
415.55  0.9714
415.56  0.9710
415.57  0.9706
415.58  0.9695
415.59  0.9685
415.60  0.9675
415.61  0.9665
415.62  0.9655
415.63  0.9645
415.64  0.9638
415.65  0.9631
415.66  0.9624
415.67  0.9618
415.68  0.9606
415.69  0.9595
415.70  0.9578
415.71  0.9567
415.72  0.9554
415.73  0.9541
415.74  0.9532
415.75  0.9522
415.76  0.9512
415.77  0.9503
415.78  0.9490
415.79  0.9477
415.80  0.9464
415.81  0.9452
415.82  0.9436
415.83  0.9420
415.84  0.9406
415.85  0.9393
415.86  0.9380
415.87  0.9367
415.88  0.9352
415.89  0.9337
415.90  0.9322
415.91  0.9307
415.92  0.9287
415.93  0.9268
415.94  0.9251
415.95  0.9233
415.96  0.9216
415.97  0.9198
415.98  0.9181
415.99  0.9163
416.00  0.9146
416.01  0.9128
416.02  0.9105
416.03  0.9081
416.04  0.9059
416.05  0.9037
416.06  0.9015
416.07  0.8994
416.08  0.8973
416.09  0.8952
416.10  0.8932
416.11  0.8911
416.12  0.8883
416.13  0.8855
416.14  0.8828
416.15  0.8801
416.16  0.8775
416.17  0.8748
416.18  0.8724
416.19  0.8699
416.20  0.8675
416.21  0.8651
416.22  0.8618
416.23  0.8585
416.24  0.8553
416.25  0.8522
416.26  0.8490
416.27  0.8458
416.28  0.8430
416.29  0.8401
416.30  0.8373
416.31  0.8344
416.32  0.8307
416.33  0.8269
416.34  0.8232
416.35  0.8196
416.36  0.8159
416.37  0.8122
416.38  0.8089
416.39  0.8056
416.40  0.8023
416.41  0.7990
416.42  0.7948
416.43  0.7906
416.44  0.7864
416.45  0.7823
416.46  0.7781
416.47  0.7740
416.48  0.7702
416.49  0.7664
416.50  0.7627
416.51  0.7589
416.52  0.7543
416.53  0.7496
416.54  0.7450
416.55  0.7404
416.56  0.7358
416.57  0.7312
416.58  0.7270
416.59  0.7228
416.60  0.7186
416.61  0.7144
416.62  0.7094
416.63  0.7043
416.64  0.6993
416.65  0.6943
416.66  0.6893
416.67  0.6843
416.68  0.6797
416.69  0.6751
416.70  0.6705
416.71  0.6659
416.72  0.6606
416.73  0.6553
416.74  0.6499
416.75  0.6446
416.76  0.6393
416.77  0.6340
416.78  0.6291
416.79  0.6241
416.80  0.6192
416.81  0.6143
416.82  0.6087
416.83  0.6032
416.84  0.5976
416.85  0.5921
416.86  0.5866
416.87  0.5810
416.88  0.5759
416.89  0.5707
416.90  0.5655
416.91  0.5603
416.92  0.5547
416.93  0.5490
416.94  0.5428
416.95  0.5372
416.96  0.5315
416.97  0.5259
416.98  0.5206
416.99  0.5153
417.00  0.5100
417.01  0.5047
417.02  0.4990
417.03  0.4934
417.04  0.4878
417.05  0.4822
417.06  0.4766
417.07  0.4709
417.08  0.4656
417.09  0.4602
417.10  0.4549
417.11  0.4495
417.12  0.4440
417.13  0.4385
417.14  0.4329
417.15  0.4274
417.16  0.4219
417.17  0.4164
417.18  0.4111
417.19  0.4058
417.20  0.4005
417.21  0.3952
417.22  0.3899
417.23  0.3846
417.24  0.3793
417.25  0.3740
417.26  0.3687
417.27  0.3634
417.28  0.3583
417.29  0.3532
417.30  0.3481
417.31  0.3430
417.32  0.3380
417.33  0.3330
417.34  0.3280
417.35  0.3230
417.36  0.3180
417.37  0.3130
417.38  0.3081
417.39  0.3033
417.40  0.2984
417.41  0.2936
417.42  0.2890
417.43  0.2844
417.44  0.2797
417.45  0.2751
417.46  0.2705
417.47  0.2659
417.48  0.2614
417.49  0.2569
417.50  0.2524
417.51  0.2479
417.52  0.2437
417.53  0.2395
417.54  0.2353
417.55  0.2311
417.56  0.2269
417.57  0.2227
417.58  0.2186
417.59  0.2145
417.60  0.2104
417.61  0.2063
417.62  0.2026
417.63  0.1989
417.64  0.1952
417.65  0.1914
417.66  0.1877
417.67  0.1840
417.68  0.1803
417.69  0.1767
417.70  0.1730
417.71  0.1693
417.72  0.1661
417.73  0.1628
417.74  0.1596
417.75  0.1563
417.76  0.1531
417.77  0.1498
417.78  0.1466
417.79  0.1434
417.80  0.1402
417.81  0.1370
417.82  0.1342
417.83  0.1314
417.84  0.1286
417.85  0.1258
417.86  0.1230
417.87  0.1202
417.88  0.1175
417.89  0.1147
417.90  0.1119
417.91  0.1092
417.92  0.1068
417.93  0.1045
417.94  0.1021
417.95  0.0998
417.96  0.0974
417.97  0.0951
417.98  0.0927
417.99  0.0904
418.00  0.0881
418.01  0.0858
418.02  0.0838
418.03  0.0819
418.04  0.0799
418.05  0.0780
418.06  0.0760
418.07  0.0741
418.08  0.0722
418.09  0.0702
418.10  0.0683
418.11  0.0664
418.12  0.0648
418.13  0.0632
418.14  0.0616
418.15  0.0600
418.16  0.0585
418.17  0.0569
418.18  0.0547
418.19  0.0532
418.20  0.0516
418.21  0.0501
418.22  0.0489
418.23  0.0476
418.24  0.0464
418.25  0.0451
418.26  0.0439
418.27  0.0426
418.28  0.0414
418.29  0.0402
418.30  0.0389
418.31  0.0377
418.32  0.0367
418.33  0.0357
418.34  0.0348
418.35  0.0338
418.36  0.0328
418.37  0.0318
418.38  0.0309
418.39  0.0299
418.40  0.0289
418.41  0.0279
418.42  0.0272
418.43  0.0264
418.44  0.0257
418.45  0.0249
418.46  0.0241
418.47  0.0234
418.48  0.0226
418.49  0.0219
418.50  0.0211
418.51  0.0204
418.52  0.0198
418.53  0.0192
418.54  0.0187
418.55  0.0181
418.56  0.0175
418.57  0.0169
418.58  0.0164
418.59  0.0158
418.60  0.0152
418.61  0.0146
418.62  0.0142
418.63  0.0138
418.64  0.0134
418.65  0.0129
418.66  0.0125
418.67  0.0121
418.68  0.0116
418.69  0.0112
418.70  0.0108
418.71  0.0104
418.72  0.0100
418.73  0.0097
418.74  0.0094
418.75  0.0091
418.76  0.0088
418.77  0.0085
418.78  0.0082
418.79  0.0078
418.80  0.0075
418.81  0.0072
418.82  0.0070
418.83  0.0068
418.84  0.0065
418.85  0.0063
418.86  0.0061
418.87  0.0059
418.88  0.0056
418.89  0.0054
418.90  0.0052
418.91  0.0050
418.92  0.0048
418.93  0.0046
418.94  0.0045
418.95  0.0043
418.96  0.0041
418.97  0.0040
418.98  0.0038
418.99  0.0037
419.00  0.0035
419.01  0.0033
419.02  0.0032
419.03  0.0031
419.04  0.0030
419.05  0.0029
419.06  0.0028
419.07  0.0027
419.08  0.0026
419.09  0.0024
419.10  0.0023
419.11  0.0022
419.12  0.0021
419.13  0.0021
419.14  0.0020
419.15  0.0019
419.16  0.0018
419.17  0.0018
419.18  0.0017
419.19  0.0016
419.20  0.0015
419.21  0.0015
419.22  0.0014
419.23  0.0014
419.24  0.0013
419.25  0.0013
419.26  0.0012
419.27  0.0011
419.28  0.0011
419.29  0.0010
419.30  0.0010
419.31  0.0009
419.32  0.0009
419.33  0.0009
419.34  0.0008
419.35  0.0008
419.36  0.0008
419.37  0.0007
419.38  0.0007
419.39  0.0007
419.40  0.0006
419.41  0.0006
