# Provided by ESA in 10/2012
# Important Notes:
# The data contained here correspond to the OLCI Spectral Model CDR derived in 2011.
# The data have been calculated for the camera 4, pointing nadir.
852.71  0.0006
852.72  0.0007
852.73  0.0007
852.74  0.0007
852.75  0.0008
852.76  0.0008
852.77  0.0008
852.78  0.0009
852.79  0.0009
852.80  0.0010
852.81  0.0010
852.82  0.0010
852.83  0.0011
852.84  0.0012
852.85  0.0012
852.86  0.0013
852.87  0.0013
852.88  0.0014
852.89  0.0014
852.90  0.0015
852.91  0.0015
852.92  0.0016
852.93  0.0017
852.94  0.0018
852.95  0.0019
852.96  0.0019
852.97  0.0020
852.98  0.0021
852.99  0.0022
853.00  0.0023
853.01  0.0023
853.02  0.0025
853.03  0.0026
853.04  0.0027
853.05  0.0028
853.06  0.0029
853.07  0.0030
853.08  0.0032
853.09  0.0033
853.10  0.0034
853.11  0.0035
853.12  0.0037
853.13  0.0039
853.14  0.0040
853.15  0.0042
853.16  0.0044
853.17  0.0045
853.18  0.0047
853.19  0.0049
853.20  0.0050
853.21  0.0052
853.22  0.0054
853.23  0.0057
853.24  0.0059
853.25  0.0061
853.26  0.0064
853.27  0.0066
853.28  0.0069
853.29  0.0071
853.30  0.0073
853.31  0.0076
853.32  0.0079
853.33  0.0082
853.34  0.0086
853.35  0.0089
853.36  0.0092
853.37  0.0095
853.38  0.0099
853.39  0.0102
853.40  0.0105
853.41  0.0109
853.42  0.0113
853.43  0.0118
853.44  0.0122
853.45  0.0126
853.46  0.0131
853.47  0.0135
853.48  0.0140
853.49  0.0144
853.50  0.0149
853.51  0.0153
853.52  0.0159
853.53  0.0165
853.54  0.0171
853.55  0.0177
853.56  0.0183
853.57  0.0189
853.58  0.0195
853.59  0.0201
853.60  0.0207
853.61  0.0213
853.62  0.0221
853.63  0.0229
853.64  0.0237
853.65  0.0245
853.66  0.0253
853.67  0.0260
853.68  0.0268
853.69  0.0276
853.70  0.0284
853.71  0.0292
853.72  0.0302
853.73  0.0312
853.74  0.0323
853.75  0.0333
853.76  0.0343
853.77  0.0353
853.78  0.0363
853.79  0.0373
853.80  0.0384
853.81  0.0394
853.82  0.0407
853.83  0.0420
853.84  0.0433
853.85  0.0446
853.86  0.0458
853.87  0.0471
853.88  0.0484
853.89  0.0497
853.90  0.0510
853.91  0.0523
853.92  0.0539
853.93  0.0555
853.94  0.0571
853.95  0.0587
853.96  0.0610
853.97  0.0626
853.98  0.0643
853.99  0.0659
854.00  0.0676
854.01  0.0692
854.02  0.0712
854.03  0.0732
854.04  0.0752
854.05  0.0772
854.06  0.0792
854.07  0.0813
854.08  0.0833
854.09  0.0853
854.10  0.0873
854.11  0.0894
854.12  0.0918
854.13  0.0942
854.14  0.0966
854.15  0.0990
854.16  0.1015
854.17  0.1039
854.18  0.1063
854.19  0.1088
854.20  0.1112
854.21  0.1137
854.22  0.1165
854.23  0.1194
854.24  0.1223
854.25  0.1251
854.26  0.1280
854.27  0.1309
854.28  0.1338
854.29  0.1367
854.30  0.1396
854.31  0.1425
854.32  0.1458
854.33  0.1491
854.34  0.1525
854.35  0.1558
854.36  0.1591
854.37  0.1625
854.38  0.1659
854.39  0.1692
854.40  0.1726
854.41  0.1760
854.42  0.1798
854.43  0.1836
854.44  0.1874
854.45  0.1912
854.46  0.1950
854.47  0.1988
854.48  0.2027
854.49  0.2065
854.50  0.2104
854.51  0.2143
854.52  0.2185
854.53  0.2228
854.54  0.2270
854.55  0.2312
854.56  0.2355
854.57  0.2398
854.58  0.2442
854.59  0.2485
854.60  0.2528
854.61  0.2572
854.62  0.2618
854.63  0.2665
854.64  0.2711
854.65  0.2758
854.66  0.2804
854.67  0.2852
854.68  0.2900
854.69  0.2948
854.70  0.2995
854.71  0.3043
854.72  0.3093
854.73  0.3143
854.74  0.3193
854.75  0.3243
854.76  0.3293
854.77  0.3345
854.78  0.3397
854.79  0.3448
854.80  0.3500
854.81  0.3551
854.82  0.3604
854.83  0.3657
854.84  0.3710
854.85  0.3763
854.86  0.3815
854.87  0.3870
854.88  0.3925
854.89  0.3979
854.90  0.4034
854.91  0.4089
854.92  0.4143
854.93  0.4198
854.94  0.4252
854.95  0.4307
854.96  0.4361
854.97  0.4418
854.98  0.4475
854.99  0.4532
855.00  0.4589
855.01  0.4645
855.02  0.4700
855.03  0.4756
855.04  0.4811
855.05  0.4866
855.06  0.4921
855.07  0.4979
855.08  0.5037
855.09  0.5095
855.10  0.5152
855.11  0.5210
855.12  0.5265
855.13  0.5319
855.14  0.5374
855.15  0.5429
855.16  0.5483
855.17  0.5541
855.18  0.5599
855.19  0.5656
855.20  0.5714
855.21  0.5772
855.22  0.5831
855.23  0.5884
855.24  0.5937
855.25  0.5990
855.26  0.6043
855.27  0.6100
855.28  0.6157
855.29  0.6214
855.30  0.6270
855.31  0.6327
855.32  0.6377
855.33  0.6428
855.34  0.6478
855.35  0.6529
855.36  0.6579
855.37  0.6634
855.38  0.6688
855.39  0.6743
855.40  0.6797
855.41  0.6851
855.42  0.6898
855.43  0.6945
855.44  0.6992
855.45  0.7039
855.46  0.7086
855.47  0.7137
855.48  0.7188
855.49  0.7239
855.50  0.7290
855.51  0.7341
855.52  0.7384
855.53  0.7427
855.54  0.7469
855.55  0.7512
855.56  0.7555
855.57  0.7602
855.58  0.7649
855.59  0.7696
855.60  0.7743
855.61  0.7790
855.62  0.7827
855.63  0.7865
855.64  0.7904
855.65  0.7942
855.66  0.7980
855.67  0.8022
855.68  0.8064
855.69  0.8107
855.70  0.8149
855.71  0.8191
855.72  0.8224
855.73  0.8257
855.74  0.8291
855.75  0.8324
855.76  0.8357
855.77  0.8395
855.78  0.8432
855.79  0.8469
855.80  0.8506
855.81  0.8543
855.82  0.8571
855.83  0.8600
855.84  0.8629
855.85  0.8657
855.86  0.8686
855.87  0.8718
855.88  0.8750
855.89  0.8782
855.90  0.8814
855.91  0.8846
855.92  0.8869
855.93  0.8894
855.94  0.8918
855.95  0.8942
855.96  0.8967
855.97  0.8994
855.98  0.9020
855.99  0.9047
856.00  0.9074
856.01  0.9101
856.02  0.9120
856.03  0.9140
856.04  0.9161
856.05  0.9182
856.06  0.9202
856.07  0.9224
856.08  0.9246
856.09  0.9268
856.10  0.9289
856.11  0.9311
856.12  0.9327
856.13  0.9344
856.14  0.9361
856.15  0.9378
856.16  0.9396
856.17  0.9413
856.18  0.9430
856.19  0.9447
856.20  0.9464
856.21  0.9482
856.22  0.9494
856.23  0.9509
856.24  0.9523
856.25  0.9538
856.26  0.9552
856.27  0.9565
856.28  0.9578
856.29  0.9591
856.30  0.9604
856.31  0.9617
856.32  0.9627
856.33  0.9639
856.34  0.9652
856.35  0.9664
856.36  0.9676
856.37  0.9686
856.38  0.9695
856.39  0.9704
856.40  0.9713
856.41  0.9722
856.42  0.9730
856.43  0.9741
856.44  0.9751
856.45  0.9762
856.46  0.9773
856.47  0.9785
856.48  0.9791
856.49  0.9797
856.50  0.9803
856.51  0.9809
856.52  0.9815
856.53  0.9825
856.54  0.9835
856.55  0.9844
856.56  0.9854
856.57  0.9857
856.58  0.9861
856.59  0.9864
856.60  0.9868
856.61  0.9871
856.62  0.9876
856.63  0.9884
856.64  0.9893
856.65  0.9902
856.66  0.9910
856.67  0.9911
856.68  0.9912
856.69  0.9913
856.70  0.9915
856.71  0.9916
856.72  0.9919
856.73  0.9927
856.74  0.9935
856.75  0.9942
856.76  0.9950
856.77  0.9949
856.78  0.9949
856.79  0.9948
856.80  0.9947
856.81  0.9947
856.82  0.9949
856.83  0.9956
856.84  0.9963
856.85  0.9970
856.86  0.9977
856.87  0.9974
856.88  0.9972
856.89  0.9970
856.90  0.9969
856.91  0.9967
856.92  0.9968
856.93  0.9974
856.94  0.9980
856.95  0.9987
856.96  0.9993
856.97  0.9989
856.98  0.9986
856.99  0.9983
857.00  0.9981
857.01  0.9978
857.02  0.9979
857.03  0.9984
857.04  0.9989
857.05  0.9994
857.06  1.0000
857.07  0.9995
857.08  0.9992
857.09  0.9989
857.10  0.9986
857.11  0.9982
857.12  0.9983
857.13  0.9987
857.14  0.9992
857.15  0.9996
857.16  1.0000
857.17  0.9996
857.18  0.9992
857.19  0.9989
857.20  0.9986
857.21  0.9982
857.22  0.9983
857.23  0.9986
857.24  0.9990
857.25  0.9993
857.26  0.9996
857.27  0.9992
857.28  0.9989
857.29  0.9986
857.30  0.9983
857.31  0.9980
857.32  0.9981
857.33  0.9983
857.34  0.9985
857.35  0.9987
857.36  0.9990
857.37  0.9985
857.38  0.9983
857.39  0.9981
857.40  0.9979
857.41  0.9976
857.42  0.9978
857.43  0.9979
857.44  0.9980
857.45  0.9981
857.46  0.9982
857.47  0.9979
857.48  0.9977
857.49  0.9976
857.50  0.9974
857.51  0.9973
857.52  0.9975
857.53  0.9975
857.54  0.9975
857.55  0.9975
857.56  0.9975
857.57  0.9972
857.58  0.9972
857.59  0.9971
857.60  0.9971
857.61  0.9970
857.62  0.9973
857.63  0.9972
857.64  0.9971
857.65  0.9970
857.66  0.9969
857.67  0.9966
857.68  0.9967
857.69  0.9968
857.70  0.9968
857.71  0.9969
857.72  0.9978
857.73  0.9976
857.74  0.9975
857.75  0.9973
857.76  0.9971
857.77  0.9970
857.78  0.9971
857.79  0.9973
857.80  0.9975
857.81  0.9977
857.82  0.9981
857.83  0.9978
857.84  0.9976
857.85  0.9973
857.86  0.9971
857.87  0.9969
857.88  0.9972
857.89  0.9975
857.90  0.9977
857.91  0.9980
857.92  0.9984
857.93  0.9981
857.94  0.9978
857.95  0.9974
857.96  0.9971
857.97  0.9970
857.98  0.9974
857.99  0.9977
858.00  0.9980
858.01  0.9983
858.02  0.9988
858.03  0.9984
858.04  0.9980
858.05  0.9976
858.06  0.9972
858.07  0.9972
858.08  0.9975
858.09  0.9979
858.10  0.9983
858.11  0.9986
858.12  0.9991
858.13  0.9986
858.14  0.9982
858.15  0.9978
858.16  0.9974
858.17  0.9973
858.18  0.9977
858.19  0.9980
858.20  0.9984
858.21  0.9988
858.22  0.9992
858.23  0.9988
858.24  0.9983
858.25  0.9979
858.26  0.9974
858.27  0.9974
858.28  0.9977
858.29  0.9981
858.30  0.9984
858.31  0.9988
858.32  0.9992
858.33  0.9987
858.34  0.9983
858.35  0.9978
858.36  0.9974
858.37  0.9974
858.38  0.9977
858.39  0.9980
858.40  0.9983
858.41  0.9986
858.42  0.9989
858.43  0.9985
858.44  0.9981
858.45  0.9977
858.46  0.9973
858.47  0.9973
858.48  0.9975
858.49  0.9978
858.50  0.9980
858.51  0.9983
858.52  0.9985
858.53  0.9982
858.54  0.9978
858.55  0.9975
858.56  0.9971
858.57  0.9972
858.58  0.9973
858.59  0.9975
858.60  0.9977
858.61  0.9978
858.62  0.9980
858.63  0.9978
858.64  0.9975
858.65  0.9972
858.66  0.9970
858.67  0.9971
858.68  0.9971
858.69  0.9972
858.70  0.9973
858.71  0.9974
858.72  0.9969
858.73  0.9967
858.74  0.9966
858.75  0.9965
858.76  0.9963
858.77  0.9965
858.78  0.9965
858.79  0.9965
858.80  0.9965
858.81  0.9965
858.82  0.9966
858.83  0.9965
858.84  0.9965
858.85  0.9964
858.86  0.9964
858.87  0.9966
858.88  0.9965
858.89  0.9964
858.90  0.9963
858.91  0.9962
858.92  0.9962
858.93  0.9962
858.94  0.9963
858.95  0.9963
858.96  0.9964
858.97  0.9973
858.98  0.9971
858.99  0.9970
859.00  0.9968
859.01  0.9966
859.02  0.9965
859.03  0.9967
859.04  0.9968
859.05  0.9970
859.06  0.9972
859.07  0.9976
859.08  0.9973
859.09  0.9971
859.10  0.9968
859.11  0.9966
859.12  0.9963
859.13  0.9966
859.14  0.9969
859.15  0.9971
859.16  0.9974
859.17  0.9978
859.18  0.9975
859.19  0.9972
859.20  0.9968
859.21  0.9965
859.22  0.9962
859.23  0.9965
859.24  0.9968
859.25  0.9972
859.26  0.9975
859.27  0.9979
859.28  0.9975
859.29  0.9972
859.30  0.9968
859.31  0.9964
859.32  0.9960
859.33  0.9964
859.34  0.9967
859.35  0.9971
859.36  0.9974
859.37  0.9979
859.38  0.9975
859.39  0.9970
859.40  0.9966
859.41  0.9962
859.42  0.9958
859.43  0.9961
859.44  0.9965
859.45  0.9969
859.46  0.9972
859.47  0.9977
859.48  0.9972
859.49  0.9968
859.50  0.9963
859.51  0.9959
859.52  0.9954
859.53  0.9958
859.54  0.9961
859.55  0.9965
859.56  0.9968
859.57  0.9972
859.58  0.9967
859.59  0.9963
859.60  0.9959
859.61  0.9954
859.62  0.9950
859.63  0.9953
859.64  0.9956
859.65  0.9959
859.66  0.9962
859.67  0.9965
859.68  0.9961
859.69  0.9957
859.70  0.9953
859.71  0.9949
859.72  0.9945
859.73  0.9947
859.74  0.9950
859.75  0.9952
859.76  0.9955
859.77  0.9957
859.78  0.9954
859.79  0.9950
859.80  0.9947
859.81  0.9943
859.82  0.9940
859.83  0.9942
859.84  0.9943
859.85  0.9945
859.86  0.9946
859.87  0.9948
859.88  0.9946
859.89  0.9943
859.90  0.9940
859.91  0.9938
859.92  0.9935
859.93  0.9936
859.94  0.9937
859.95  0.9938
859.96  0.9938
859.97  0.9933
859.98  0.9932
859.99  0.9931
860.00  0.9929
860.01  0.9928
860.02  0.9926
860.03  0.9927
860.04  0.9927
860.05  0.9927
860.06  0.9927
860.07  0.9927
860.08  0.9927
860.09  0.9926
860.10  0.9926
860.11  0.9925
860.12  0.9925
860.13  0.9924
860.14  0.9923
860.15  0.9922
860.16  0.9921
860.17  0.9920
860.18  0.9921
860.19  0.9921
860.20  0.9922
860.21  0.9923
860.22  0.9929
860.23  0.9928
860.24  0.9926
860.25  0.9924
860.26  0.9923
860.27  0.9921
860.28  0.9923
860.29  0.9925
860.30  0.9927
860.31  0.9928
860.32  0.9930
860.33  0.9928
860.34  0.9925
860.35  0.9923
860.36  0.9920
860.37  0.9918
860.38  0.9921
860.39  0.9923
860.40  0.9926
860.41  0.9928
860.42  0.9931
860.43  0.9928
860.44  0.9925
860.45  0.9921
860.46  0.9918
860.47  0.9915
860.48  0.9918
860.49  0.9921
860.50  0.9925
860.51  0.9928
860.52  0.9931
860.53  0.9927
860.54  0.9924
860.55  0.9920
860.56  0.9916
860.57  0.9912
860.58  0.9916
860.59  0.9919
860.60  0.9923
860.61  0.9926
860.62  0.9930
860.63  0.9926
860.64  0.9921
860.65  0.9917
860.66  0.9913
860.67  0.9909
860.68  0.9912
860.69  0.9916
860.70  0.9920
860.71  0.9923
860.72  0.9927
860.73  0.9922
860.74  0.9918
860.75  0.9913
860.76  0.9909
860.77  0.9905
860.78  0.9908
860.79  0.9911
860.80  0.9915
860.81  0.9918
860.82  0.9922
860.83  0.9917
860.84  0.9913
860.85  0.9909
860.86  0.9904
860.87  0.9900
860.88  0.9903
860.89  0.9906
860.90  0.9909
860.91  0.9912
860.92  0.9915
860.93  0.9911
860.94  0.9907
860.95  0.9903
860.96  0.9899
860.97  0.9894
860.98  0.9897
860.99  0.9899
861.00  0.9902
861.01  0.9904
861.02  0.9906
861.03  0.9903
861.04  0.9899
861.05  0.9896
861.06  0.9893
861.07  0.9889
861.08  0.9891
861.09  0.9892
861.10  0.9894
861.11  0.9896
861.12  0.9897
861.13  0.9895
861.14  0.9892
861.15  0.9889
861.16  0.9887
861.17  0.9884
861.18  0.9885
861.19  0.9886
861.20  0.9887
861.21  0.9887
861.22  0.9888
861.23  0.9881
861.24  0.9879
861.25  0.9878
861.26  0.9877
861.27  0.9875
861.28  0.9875
861.29  0.9875
861.30  0.9875
861.31  0.9876
861.32  0.9876
861.33  0.9875
861.34  0.9875
861.35  0.9874
861.36  0.9874
861.37  0.9874
861.38  0.9873
861.39  0.9872
861.40  0.9871
861.41  0.9870
861.42  0.9869
861.43  0.9870
861.44  0.9870
861.45  0.9871
861.46  0.9871
861.47  0.9878
861.48  0.9876
861.49  0.9875
861.50  0.9873
861.51  0.9872
861.52  0.9870
861.53  0.9872
861.54  0.9873
861.55  0.9875
861.56  0.9877
861.57  0.9879
861.58  0.9876
861.59  0.9874
861.60  0.9871
861.61  0.9869
861.62  0.9867
861.63  0.9869
861.64  0.9872
861.65  0.9874
861.66  0.9877
861.67  0.9880
861.68  0.9876
861.69  0.9873
861.70  0.9870
861.71  0.9867
861.72  0.9864
861.73  0.9867
861.74  0.9870
861.75  0.9873
861.76  0.9877
861.77  0.9880
861.78  0.9876
861.79  0.9872
861.80  0.9868
861.81  0.9865
861.82  0.9861
861.83  0.9864
861.84  0.9868
861.85  0.9871
861.86  0.9875
861.87  0.9878
861.88  0.9874
861.89  0.9870
861.90  0.9866
861.91  0.9862
861.92  0.9857
861.93  0.9861
861.94  0.9865
861.95  0.9868
861.96  0.9872
861.97  0.9875
861.98  0.9871
861.99  0.9866
862.00  0.9862
862.01  0.9858
862.02  0.9853
862.03  0.9857
862.04  0.9860
862.05  0.9863
862.06  0.9867
862.07  0.9870
862.08  0.9866
862.09  0.9861
862.10  0.9857
862.11  0.9853
862.12  0.9848
862.13  0.9851
862.14  0.9854
862.15  0.9857
862.16  0.9860
862.17  0.9863
862.18  0.9859
862.19  0.9855
862.20  0.9851
862.21  0.9847
862.22  0.9843
862.23  0.9846
862.24  0.9848
862.25  0.9850
862.26  0.9853
862.27  0.9855
862.28  0.9852
862.29  0.9848
862.30  0.9845
862.31  0.9841
862.32  0.9838
862.33  0.9839
862.34  0.9841
862.35  0.9843
862.36  0.9844
862.37  0.9846
862.38  0.9843
862.39  0.9841
862.40  0.9838
862.41  0.9836
862.42  0.9833
862.43  0.9834
862.44  0.9835
862.45  0.9835
862.46  0.9836
862.47  0.9837
862.48  0.9829
862.49  0.9828
862.50  0.9827
862.51  0.9825
862.52  0.9824
862.53  0.9824
862.54  0.9824
862.55  0.9824
862.56  0.9824
862.57  0.9824
862.58  0.9824
862.59  0.9824
862.60  0.9823
862.61  0.9823
862.62  0.9822
862.63  0.9821
862.64  0.9820
862.65  0.9820
862.66  0.9819
862.67  0.9818
862.68  0.9818
862.69  0.9819
862.70  0.9819
862.71  0.9820
862.72  0.9827
862.73  0.9825
862.74  0.9823
862.75  0.9822
862.76  0.9820
862.77  0.9819
862.78  0.9820
862.79  0.9822
862.80  0.9824
862.81  0.9826
862.82  0.9827
862.83  0.9825
862.84  0.9823
862.85  0.9820
862.86  0.9818
862.87  0.9815
862.88  0.9818
862.89  0.9820
862.90  0.9823
862.91  0.9826
862.92  0.9828
862.93  0.9825
862.94  0.9822
862.95  0.9819
862.96  0.9816
862.97  0.9812
862.98  0.9816
862.99  0.9819
863.00  0.9822
863.01  0.9825
863.02  0.9828
863.03  0.9825
863.04  0.9821
863.05  0.9817
863.06  0.9813
863.07  0.9809
863.08  0.9813
863.09  0.9816
863.10  0.9820
863.11  0.9823
863.12  0.9827
863.13  0.9823
863.14  0.9819
863.15  0.9814
863.16  0.9810
863.17  0.9806
863.18  0.9810
863.19  0.9813
863.20  0.9817
863.21  0.9820
863.22  0.9824
863.23  0.9819
863.24  0.9815
863.25  0.9811
863.26  0.9806
863.27  0.9802
863.28  0.9805
863.29  0.9809
863.30  0.9812
863.31  0.9815
863.32  0.9819
863.33  0.9814
863.34  0.9810
863.35  0.9806
863.36  0.9801
863.37  0.9797
863.38  0.9800
863.39  0.9803
863.40  0.9806
863.41  0.9809
863.42  0.9812
863.43  0.9808
863.44  0.9804
863.45  0.9800
863.46  0.9796
863.47  0.9792
863.48  0.9794
863.49  0.9797
863.50  0.9799
863.51  0.9801
863.52  0.9804
863.53  0.9800
863.54  0.9797
863.55  0.9793
863.56  0.9790
863.57  0.9787
863.58  0.9788
863.59  0.9790
863.60  0.9791
863.61  0.9793
863.62  0.9795
863.63  0.9792
863.64  0.9789
863.65  0.9787
863.66  0.9784
863.67  0.9782
863.68  0.9782
863.69  0.9783
863.70  0.9784
863.71  0.9785
863.72  0.9786
863.73  0.9778
863.74  0.9777
863.75  0.9775
863.76  0.9774
863.77  0.9773
863.78  0.9773
863.79  0.9773
863.80  0.9773
863.81  0.9773
863.82  0.9773
863.83  0.9773
863.84  0.9772
863.85  0.9772
863.86  0.9771
863.87  0.9771
863.88  0.9770
863.89  0.9769
863.90  0.9768
863.91  0.9767
863.92  0.9766
863.93  0.9767
863.94  0.9768
863.95  0.9768
863.96  0.9769
863.97  0.9775
863.98  0.9774
863.99  0.9772
864.00  0.9770
864.01  0.9769
864.02  0.9767
864.03  0.9769
864.04  0.9771
864.05  0.9773
864.06  0.9774
864.07  0.9776
864.08  0.9774
864.09  0.9771
864.10  0.9769
864.11  0.9766
864.12  0.9764
864.13  0.9767
864.14  0.9769
864.15  0.9772
864.16  0.9774
864.17  0.9777
864.18  0.9774
864.19  0.9771
864.20  0.9767
864.21  0.9764
864.22  0.9761
864.23  0.9764
864.24  0.9767
864.25  0.9771
864.26  0.9774
864.27  0.9777
864.28  0.9773
864.29  0.9769
864.30  0.9766
864.31  0.9762
864.32  0.9758
864.33  0.9762
864.34  0.9765
864.35  0.9769
864.36  0.9772
864.37  0.9776
864.38  0.9771
864.39  0.9767
864.40  0.9763
864.41  0.9759
864.42  0.9755
864.43  0.9758
864.44  0.9762
864.45  0.9765
864.46  0.9769
864.47  0.9772
864.48  0.9768
864.49  0.9764
864.50  0.9759
864.51  0.9755
864.52  0.9751
864.53  0.9754
864.54  0.9757
864.55  0.9761
864.56  0.9764
864.57  0.9767
864.58  0.9763
864.59  0.9759
864.60  0.9754
864.61  0.9750
864.62  0.9746
864.63  0.9749
864.64  0.9752
864.65  0.9755
864.66  0.9757
864.67  0.9760
864.68  0.9756
864.69  0.9752
864.70  0.9748
864.71  0.9744
864.72  0.9741
864.73  0.9743
864.74  0.9745
864.75  0.9748
864.76  0.9750
864.77  0.9752
864.78  0.9749
864.79  0.9745
864.80  0.9742
864.81  0.9739
864.82  0.9735
864.83  0.9737
864.84  0.9738
864.85  0.9740
864.86  0.9742
864.87  0.9743
864.88  0.9741
864.89  0.9738
864.90  0.9735
864.91  0.9733
864.92  0.9730
864.93  0.9731
864.94  0.9732
864.95  0.9733
864.96  0.9733
864.97  0.9734
864.98  0.9727
864.99  0.9725
865.00  0.9724
865.01  0.9722
865.02  0.9721
865.03  0.9721
865.04  0.9721
865.05  0.9720
865.06  0.9720
865.07  0.9720
865.08  0.9720
865.09  0.9719
865.10  0.9718
865.11  0.9718
865.12  0.9717
865.13  0.9716
865.14  0.9715
865.15  0.9714
865.16  0.9712
865.17  0.9711
865.18  0.9712
865.19  0.9712
865.20  0.9712
865.21  0.9713
865.22  0.9719
865.23  0.9717
865.24  0.9715
865.25  0.9713
865.26  0.9712
865.27  0.9710
865.28  0.9711
865.29  0.9713
865.30  0.9714
865.31  0.9716
865.32  0.9717
865.33  0.9715
865.34  0.9712
865.35  0.9709
865.36  0.9707
865.37  0.9704
865.38  0.9706
865.39  0.9709
865.40  0.9711
865.41  0.9713
865.42  0.9716
865.43  0.9712
865.44  0.9709
865.45  0.9706
865.46  0.9702
865.47  0.9699
865.48  0.9702
865.49  0.9705
865.50  0.9708
865.51  0.9711
865.52  0.9713
865.53  0.9710
865.54  0.9706
865.55  0.9702
865.56  0.9698
865.57  0.9694
865.58  0.9697
865.59  0.9700
865.60  0.9703
865.61  0.9707
865.62  0.9710
865.63  0.9705
865.64  0.9701
865.65  0.9697
865.66  0.9692
865.67  0.9688
865.68  0.9691
865.69  0.9695
865.70  0.9698
865.71  0.9701
865.72  0.9704
865.73  0.9700
865.74  0.9695
865.75  0.9691
865.76  0.9686
865.77  0.9682
865.78  0.9685
865.79  0.9688
865.80  0.9691
865.81  0.9694
865.82  0.9697
865.83  0.9693
865.84  0.9688
865.85  0.9683
865.86  0.9679
865.87  0.9674
865.88  0.9677
865.89  0.9680
865.90  0.9682
865.91  0.9685
865.92  0.9688
865.93  0.9684
865.94  0.9679
865.95  0.9675
865.96  0.9671
865.97  0.9667
865.98  0.9669
865.99  0.9671
866.00  0.9673
866.01  0.9675
866.02  0.9677
866.03  0.9674
866.04  0.9670
866.05  0.9667
866.06  0.9663
866.07  0.9659
866.08  0.9661
866.09  0.9662
866.10  0.9663
866.11  0.9665
866.12  0.9666
866.13  0.9663
866.14  0.9661
866.15  0.9658
866.16  0.9655
866.17  0.9652
866.18  0.9653
866.19  0.9653
866.20  0.9654
866.21  0.9654
866.22  0.9655
866.23  0.9647
866.24  0.9646
866.25  0.9644
866.26  0.9642
866.27  0.9641
866.28  0.9641
866.29  0.9641
866.30  0.9640
866.31  0.9640
866.32  0.9640
866.33  0.9640
866.34  0.9639
866.35  0.9638
866.36  0.9638
866.37  0.9637
866.38  0.9636
866.39  0.9635
866.40  0.9634
866.41  0.9632
866.42  0.9631
866.43  0.9632
866.44  0.9632
866.45  0.9632
866.46  0.9633
866.47  0.9639
866.48  0.9637
866.49  0.9635
866.50  0.9633
866.51  0.9632
866.52  0.9630
866.53  0.9631
866.54  0.9633
866.55  0.9634
866.56  0.9636
866.57  0.9637
866.58  0.9635
866.59  0.9632
866.60  0.9629
866.61  0.9627
866.62  0.9624
866.63  0.9627
866.64  0.9629
866.65  0.9631
866.66  0.9633
866.67  0.9636
866.68  0.9632
866.69  0.9629
866.70  0.9626
866.71  0.9622
866.72  0.9619
866.73  0.9622
866.74  0.9625
866.75  0.9628
866.76  0.9631
866.77  0.9633
866.78  0.9629
866.79  0.9626
866.80  0.9622
866.81  0.9618
866.82  0.9614
866.83  0.9617
866.84  0.9620
866.85  0.9623
866.86  0.9627
866.87  0.9630
866.88  0.9625
866.89  0.9621
866.90  0.9617
866.91  0.9612
866.92  0.9608
866.93  0.9611
866.94  0.9615
866.95  0.9618
866.96  0.9621
866.97  0.9624
866.98  0.9620
866.99  0.9615
867.00  0.9611
867.01  0.9606
867.02  0.9602
867.03  0.9605
867.04  0.9608
867.05  0.9611
867.06  0.9614
867.07  0.9617
867.08  0.9613
867.09  0.9608
867.10  0.9604
867.11  0.9599
867.12  0.9595
867.13  0.9597
867.14  0.9600
867.15  0.9603
867.16  0.9605
867.17  0.9608
867.18  0.9604
867.19  0.9600
867.20  0.9595
867.21  0.9591
867.22  0.9587
867.23  0.9589
867.24  0.9591
867.25  0.9593
867.26  0.9595
867.27  0.9597
867.28  0.9594
867.29  0.9590
867.30  0.9587
867.31  0.9583
867.32  0.9580
867.33  0.9581
867.34  0.9582
867.35  0.9584
867.36  0.9585
867.37  0.9586
867.38  0.9583
867.39  0.9581
867.40  0.9578
867.41  0.9575
867.42  0.9572
867.43  0.9573
867.44  0.9573
867.45  0.9574
867.46  0.9574
867.47  0.9575
867.48  0.9568
867.49  0.9566
867.50  0.9564
867.51  0.9563
867.52  0.9561
867.53  0.9561
867.54  0.9561
867.55  0.9561
867.56  0.9561
867.57  0.9560
867.58  0.9560
867.59  0.9559
867.60  0.9559
867.61  0.9558
867.62  0.9557
867.63  0.9556
867.64  0.9555
867.65  0.9554
867.66  0.9553
867.67  0.9552
867.68  0.9552
867.69  0.9552
867.70  0.9553
867.71  0.9553
867.72  0.9559
867.73  0.9557
867.74  0.9555
867.75  0.9554
867.76  0.9552
867.77  0.9550
867.78  0.9552
867.79  0.9553
867.80  0.9555
867.81  0.9556
867.82  0.9558
867.83  0.9555
867.84  0.9552
867.85  0.9550
867.86  0.9547
867.87  0.9544
867.88  0.9547
867.89  0.9549
867.90  0.9551
867.91  0.9554
867.92  0.9556
867.93  0.9553
867.94  0.9549
867.95  0.9546
867.96  0.9543
867.97  0.9539
867.98  0.9542
867.99  0.9545
868.00  0.9548
868.01  0.9551
868.02  0.9554
868.03  0.9550
868.04  0.9546
868.05  0.9542
868.06  0.9538
868.07  0.9534
868.08  0.9537
868.09  0.9540
868.10  0.9544
868.11  0.9547
868.12  0.9550
868.13  0.9546
868.14  0.9541
868.15  0.9537
868.16  0.9533
868.17  0.9528
868.18  0.9532
868.19  0.9535
868.20  0.9538
868.21  0.9541
868.22  0.9544
868.23  0.9540
868.24  0.9535
868.25  0.9531
868.26  0.9526
868.27  0.9522
868.28  0.9525
868.29  0.9528
868.30  0.9531
868.31  0.9534
868.32  0.9537
868.33  0.9533
868.34  0.9528
868.35  0.9524
868.36  0.9519
868.37  0.9515
868.38  0.9518
868.39  0.9520
868.40  0.9523
868.41  0.9525
868.42  0.9528
868.43  0.9524
868.44  0.9520
868.45  0.9516
868.46  0.9512
868.47  0.9507
868.48  0.9509
868.49  0.9512
868.50  0.9514
868.51  0.9516
868.52  0.9518
868.53  0.9514
868.54  0.9511
868.55  0.9507
868.56  0.9503
868.57  0.9500
868.58  0.9501
868.59  0.9503
868.60  0.9504
868.61  0.9505
868.62  0.9507
868.63  0.9504
868.64  0.9501
868.65  0.9498
868.66  0.9496
868.67  0.9493
868.68  0.9493
868.69  0.9494
868.70  0.9494
868.71  0.9495
868.72  0.9495
868.73  0.9488
868.74  0.9486
868.75  0.9485
868.76  0.9483
868.77  0.9482
868.78  0.9481
868.79  0.9481
868.80  0.9481
868.81  0.9481
868.82  0.9481
868.83  0.9480
868.84  0.9480
868.85  0.9479
868.86  0.9478
868.87  0.9478
868.88  0.9477
868.89  0.9475
868.90  0.9474
868.91  0.9473
868.92  0.9472
868.93  0.9472
868.94  0.9473
868.95  0.9473
868.96  0.9473
868.97  0.9479
868.98  0.9478
868.99  0.9476
869.00  0.9474
869.01  0.9472
869.02  0.9471
869.03  0.9472
869.04  0.9473
869.05  0.9475
869.06  0.9476
869.07  0.9478
869.08  0.9475
869.09  0.9473
869.10  0.9470
869.11  0.9468
869.12  0.9465
869.13  0.9467
869.14  0.9469
869.15  0.9472
869.16  0.9474
869.17  0.9476
869.18  0.9473
869.19  0.9470
869.20  0.9466
869.21  0.9463
869.22  0.9460
869.23  0.9463
869.24  0.9465
869.25  0.9468
869.26  0.9471
869.27  0.9474
869.28  0.9470
869.29  0.9466
869.30  0.9462
869.31  0.9458
869.32  0.9455
869.33  0.9458
869.34  0.9461
869.35  0.9464
869.36  0.9467
869.37  0.9470
869.38  0.9466
869.39  0.9462
869.40  0.9457
869.41  0.9453
869.42  0.9449
869.43  0.9452
869.44  0.9455
869.45  0.9458
869.46  0.9462
869.47  0.9465
869.48  0.9460
869.49  0.9456
869.50  0.9451
869.51  0.9447
869.52  0.9443
869.53  0.9446
869.54  0.9449
869.55  0.9452
869.56  0.9455
869.57  0.9458
869.58  0.9453
869.59  0.9449
869.60  0.9444
869.61  0.9440
869.62  0.9435
869.63  0.9438
869.64  0.9441
869.65  0.9443
869.66  0.9446
869.67  0.9448
869.68  0.9444
869.69  0.9440
869.70  0.9436
869.71  0.9432
869.72  0.9428
869.73  0.9430
869.74  0.9432
869.75  0.9434
869.76  0.9436
869.77  0.9438
869.78  0.9435
869.79  0.9431
869.80  0.9428
869.81  0.9424
869.82  0.9420
869.83  0.9422
869.84  0.9423
869.85  0.9424
869.86  0.9426
869.87  0.9427
869.88  0.9424
869.89  0.9422
869.90  0.9419
869.91  0.9416
869.92  0.9413
869.93  0.9414
869.94  0.9414
869.95  0.9415
869.96  0.9415
869.97  0.9416
869.98  0.9409
869.99  0.9407
870.00  0.9405
870.01  0.9404
870.02  0.9402
870.03  0.9402
870.04  0.9402
870.05  0.9402
870.06  0.9402
870.07  0.9402
870.08  0.9401
870.09  0.9400
870.10  0.9400
870.11  0.9399
870.12  0.9398
870.13  0.9397
870.14  0.9396
870.15  0.9395
870.16  0.9394
870.17  0.9393
870.18  0.9393
870.19  0.9393
870.20  0.9394
870.21  0.9394
870.22  0.9400
870.23  0.9398
870.24  0.9396
870.25  0.9395
870.26  0.9393
870.27  0.9391
870.28  0.9393
870.29  0.9394
870.30  0.9396
870.31  0.9397
870.32  0.9398
870.33  0.9396
870.34  0.9393
870.35  0.9391
870.36  0.9388
870.37  0.9386
870.38  0.9388
870.39  0.9390
870.40  0.9392
870.41  0.9395
870.42  0.9397
870.43  0.9394
870.44  0.9390
870.45  0.9387
870.46  0.9384
870.47  0.9380
870.48  0.9383
870.49  0.9386
870.50  0.9389
870.51  0.9392
870.52  0.9394
870.53  0.9391
870.54  0.9387
870.55  0.9383
870.56  0.9379
870.57  0.9375
870.58  0.9378
870.59  0.9381
870.60  0.9385
870.61  0.9388
870.62  0.9391
870.63  0.9387
870.64  0.9382
870.65  0.9378
870.66  0.9374
870.67  0.9370
870.68  0.9373
870.69  0.9376
870.70  0.9379
870.71  0.9382
870.72  0.9385
870.73  0.9381
870.74  0.9376
870.75  0.9372
870.76  0.9368
870.77  0.9363
870.78  0.9366
870.79  0.9369
870.80  0.9372
870.81  0.9375
870.82  0.9378
870.83  0.9374
870.84  0.9369
870.85  0.9365
870.86  0.9361
870.87  0.9356
870.88  0.9359
870.89  0.9361
870.90  0.9364
870.91  0.9366
870.92  0.9369
870.93  0.9365
870.94  0.9361
870.95  0.9357
870.96  0.9353
870.97  0.9349
870.98  0.9351
870.99  0.9353
871.00  0.9355
871.01  0.9357
871.02  0.9359
871.03  0.9355
871.04  0.9352
871.05  0.9348
871.06  0.9345
871.07  0.9341
871.08  0.9343
871.09  0.9344
871.10  0.9345
871.11  0.9346
871.12  0.9348
871.13  0.9345
871.14  0.9342
871.15  0.9340
871.16  0.9337
871.17  0.9334
871.18  0.9335
871.19  0.9335
871.20  0.9336
871.21  0.9336
871.22  0.9337
871.23  0.9329
871.24  0.9328
871.25  0.9326
871.26  0.9325
871.27  0.9323
871.28  0.9323
871.29  0.9323
871.30  0.9323
871.31  0.9323
871.32  0.9322
871.33  0.9322
871.34  0.9321
871.35  0.9320
871.36  0.9320
871.37  0.9319
871.38  0.9318
871.39  0.9317
871.40  0.9316
871.41  0.9315
871.42  0.9314
871.43  0.9314
871.44  0.9314
871.45  0.9315
871.46  0.9315
871.47  0.9321
871.48  0.9319
871.49  0.9317
871.50  0.9316
871.51  0.9314
871.52  0.9312
871.53  0.9313
871.54  0.9315
871.55  0.9316
871.56  0.9318
871.57  0.9319
871.58  0.9317
871.59  0.9314
871.60  0.9312
871.61  0.9309
871.62  0.9306
871.63  0.9309
871.64  0.9311
871.65  0.9313
871.66  0.9315
871.67  0.9318
871.68  0.9314
871.69  0.9311
871.70  0.9308
871.71  0.9305
871.72  0.9301
871.73  0.9304
871.74  0.9307
871.75  0.9310
871.76  0.9312
871.77  0.9315
871.78  0.9311
871.79  0.9308
871.80  0.9304
871.81  0.9300
871.82  0.9296
871.83  0.9299
871.84  0.9302
871.85  0.9305
871.86  0.9308
871.87  0.9311
871.88  0.9307
871.89  0.9303
871.90  0.9299
871.91  0.9295
871.92  0.9290
871.93  0.9294
871.94  0.9297
871.95  0.9300
871.96  0.9303
871.97  0.9306
871.98  0.9302
871.99  0.9297
872.00  0.9293
872.01  0.9288
872.02  0.9284
872.03  0.9287
872.04  0.9290
872.05  0.9293
872.06  0.9296
872.07  0.9299
872.08  0.9294
872.09  0.9290
872.10  0.9286
872.11  0.9281
872.12  0.9277
872.13  0.9280
872.14  0.9282
872.15  0.9285
872.16  0.9287
872.17  0.9290
872.18  0.9286
872.19  0.9282
872.20  0.9278
872.21  0.9274
872.22  0.9270
872.23  0.9272
872.24  0.9274
872.25  0.9276
872.26  0.9278
872.27  0.9280
872.28  0.9276
872.29  0.9273
872.30  0.9269
872.31  0.9266
872.32  0.9262
872.33  0.9263
872.34  0.9265
872.35  0.9266
872.36  0.9267
872.37  0.9269
872.38  0.9266
872.39  0.9263
872.40  0.9261
872.41  0.9258
872.42  0.9255
872.43  0.9256
872.44  0.9256
872.45  0.9257
872.46  0.9257
872.47  0.9258
872.48  0.9250
872.49  0.9249
872.50  0.9247
872.51  0.9246
872.52  0.9244
872.53  0.9244
872.54  0.9244
872.55  0.9244
872.56  0.9244
872.57  0.9243
872.58  0.9243
872.59  0.9242
872.60  0.9242
872.61  0.9241
872.62  0.9240
872.63  0.9239
872.64  0.9238
872.65  0.9237
872.66  0.9236
872.67  0.9235
872.68  0.9235
872.69  0.9235
872.70  0.9236
872.71  0.9236
872.72  0.9236
872.73  0.9234
872.74  0.9232
872.75  0.9230
872.76  0.9228
872.77  0.9226
872.78  0.9227
872.79  0.9228
872.80  0.9229
872.81  0.9230
872.82  0.9231
872.83  0.9228
872.84  0.9225
872.85  0.9222
872.86  0.9219
872.87  0.9216
872.88  0.9218
872.89  0.9220
872.90  0.9221
872.91  0.9223
872.92  0.9225
872.93  0.9221
872.94  0.9217
872.95  0.9213
872.96  0.9209
872.97  0.9205
872.98  0.9207
872.99  0.9209
873.00  0.9211
873.01  0.9213
873.02  0.9215
873.03  0.9210
873.04  0.9205
873.05  0.9200
873.06  0.9196
873.07  0.9191
873.08  0.9193
873.09  0.9195
873.10  0.9197
873.11  0.9199
873.12  0.9201
873.13  0.9195
873.14  0.9189
873.15  0.9184
873.16  0.9178
873.17  0.9172
873.18  0.9174
873.19  0.9175
873.20  0.9177
873.21  0.9179
873.22  0.9180
873.23  0.9174
873.24  0.9167
873.25  0.9161
873.26  0.9154
873.27  0.9148
873.28  0.9148
873.29  0.9149
873.30  0.9150
873.31  0.9151
873.32  0.9152
873.33  0.9144
873.34  0.9137
873.35  0.9130
873.36  0.9122
873.37  0.9115
873.38  0.9115
873.39  0.9114
873.40  0.9114
873.41  0.9113
873.42  0.9113
873.43  0.9105
873.44  0.9097
873.45  0.9089
873.46  0.9081
873.47  0.9073
873.48  0.9071
873.49  0.9069
873.50  0.9067
873.51  0.9065
873.52  0.9062
873.53  0.9054
873.54  0.9045
873.55  0.9036
873.56  0.9027
873.57  0.9018
873.58  0.9014
873.59  0.9010
873.60  0.9006
873.61  0.9002
873.62  0.8998
873.63  0.8988
873.64  0.8978
873.65  0.8968
873.66  0.8959
873.67  0.8949
873.68  0.8942
873.69  0.8936
873.70  0.8929
873.71  0.8922
873.72  0.8916
873.73  0.8900
873.74  0.8889
873.75  0.8878
873.76  0.8867
873.77  0.8857
873.78  0.8847
873.79  0.8838
873.80  0.8829
873.81  0.8819
873.82  0.8810
873.83  0.8798
873.84  0.8786
873.85  0.8773
873.86  0.8761
873.87  0.8749
873.88  0.8736
873.89  0.8724
873.90  0.8711
873.91  0.8698
873.92  0.8685
873.93  0.8671
873.94  0.8657
873.95  0.8643
873.96  0.8629
873.97  0.8614
873.98  0.8598
873.99  0.8581
874.00  0.8565
874.01  0.8548
874.02  0.8532
874.03  0.8515
874.04  0.8498
874.05  0.8482
874.06  0.8465
874.07  0.8449
874.08  0.8428
874.09  0.8407
874.10  0.8387
874.11  0.8366
874.12  0.8345
874.13  0.8326
874.14  0.8306
874.15  0.8287
874.16  0.8267
874.17  0.8247
874.18  0.8222
874.19  0.8197
874.20  0.8172
874.21  0.8147
874.22  0.8122
874.23  0.8099
874.24  0.8076
874.25  0.8053
874.26  0.8030
874.27  0.8007
874.28  0.7977
874.29  0.7947
874.30  0.7917
874.31  0.7888
874.32  0.7858
874.33  0.7831
874.34  0.7804
874.35  0.7777
874.36  0.7751
874.37  0.7724
874.38  0.7689
874.39  0.7655
874.40  0.7620
874.41  0.7586
874.42  0.7552
874.43  0.7521
874.44  0.7490
874.45  0.7459
874.46  0.7428
874.47  0.7397
874.48  0.7358
874.49  0.7319
874.50  0.7280
874.51  0.7241
874.52  0.7202
874.53  0.7167
874.54  0.7132
874.55  0.7096
874.56  0.7061
874.57  0.7026
874.58  0.6983
874.59  0.6940
874.60  0.6897
874.61  0.6854
874.62  0.6811
874.63  0.6771
874.64  0.6732
874.65  0.6693
874.66  0.6654
874.67  0.6614
874.68  0.6568
874.69  0.6521
874.70  0.6474
874.71  0.6427
874.72  0.6381
874.73  0.6338
874.74  0.6295
874.75  0.6252
874.76  0.6209
874.77  0.6166
874.78  0.6116
874.79  0.6067
874.80  0.6017
874.81  0.5967
874.82  0.5918
874.83  0.5872
874.84  0.5826
874.85  0.5780
874.86  0.5734
874.87  0.5688
874.88  0.5636
874.89  0.5584
874.90  0.5533
874.91  0.5481
874.92  0.5430
874.93  0.5381
874.94  0.5333
874.95  0.5285
874.96  0.5236
874.97  0.5188
874.98  0.5130
874.99  0.5078
875.00  0.5025
875.01  0.4973
875.02  0.4921
875.03  0.4871
875.04  0.4822
875.05  0.4772
875.06  0.4723
875.07  0.4673
875.08  0.4621
875.09  0.4568
875.10  0.4516
875.11  0.4464
875.12  0.4411
875.13  0.4361
875.14  0.4312
875.15  0.4262
875.16  0.4212
875.17  0.4162
875.18  0.4111
875.19  0.4059
875.20  0.4008
875.21  0.3957
875.22  0.3905
875.23  0.3856
875.24  0.3807
875.25  0.3758
875.26  0.3708
875.27  0.3659
875.28  0.3610
875.29  0.3561
875.30  0.3511
875.31  0.3462
875.32  0.3413
875.33  0.3365
875.34  0.3318
875.35  0.3270
875.36  0.3222
875.37  0.3175
875.38  0.3128
875.39  0.3082
875.40  0.3035
875.41  0.2989
875.42  0.2943
875.43  0.2898
875.44  0.2853
875.45  0.2807
875.46  0.2762
875.47  0.2717
875.48  0.2674
875.49  0.2632
875.50  0.2589
875.51  0.2546
875.52  0.2503
875.53  0.2461
875.54  0.2419
875.55  0.2377
875.56  0.2336
875.57  0.2294
875.58  0.2255
875.59  0.2216
875.60  0.2177
875.61  0.2138
875.62  0.2099
875.63  0.2061
875.64  0.2023
875.65  0.1985
875.66  0.1947
875.67  0.1909
875.68  0.1875
875.69  0.1840
875.70  0.1805
875.71  0.1771
875.72  0.1736
875.73  0.1702
875.74  0.1668
875.75  0.1634
875.76  0.1600
875.77  0.1566
875.78  0.1536
875.79  0.1506
875.80  0.1476
875.81  0.1446
875.82  0.1415
875.83  0.1386
875.84  0.1356
875.85  0.1326
875.86  0.1297
875.87  0.1267
875.88  0.1241
875.89  0.1215
875.90  0.1189
875.91  0.1163
875.92  0.1137
875.93  0.1112
875.94  0.1086
875.95  0.1061
875.96  0.1035
875.97  0.1010
875.98  0.0988
875.99  0.0966
876.00  0.0944
876.01  0.0922
876.02  0.0901
876.03  0.0879
876.04  0.0857
876.05  0.0836
876.06  0.0814
876.07  0.0793
876.08  0.0775
876.09  0.0757
876.10  0.0739
876.11  0.0721
876.12  0.0703
876.13  0.0685
876.14  0.0667
876.15  0.0649
876.16  0.0631
876.17  0.0613
876.18  0.0599
876.19  0.0584
876.20  0.0569
876.21  0.0555
876.22  0.0540
876.23  0.0520
876.24  0.0506
876.25  0.0492
876.26  0.0477
876.27  0.0463
876.28  0.0452
876.29  0.0440
876.30  0.0429
876.31  0.0417
876.32  0.0406
876.33  0.0394
876.34  0.0383
876.35  0.0371
876.36  0.0360
876.37  0.0348
876.38  0.0339
876.39  0.0330
876.40  0.0321
876.41  0.0312
876.42  0.0303
876.43  0.0294
876.44  0.0285
876.45  0.0276
876.46  0.0267
876.47  0.0258
876.48  0.0251
876.49  0.0244
876.50  0.0237
876.51  0.0230
876.52  0.0223
876.53  0.0216
876.54  0.0209
876.55  0.0202
876.56  0.0195
876.57  0.0188
876.58  0.0183
876.59  0.0178
876.60  0.0172
876.61  0.0167
876.62  0.0162
876.63  0.0156
876.64  0.0151
876.65  0.0146
876.66  0.0140
876.67  0.0135
876.68  0.0131
876.69  0.0127
876.70  0.0123
876.71  0.0119
876.72  0.0115
876.73  0.0111
876.74  0.0107
876.75  0.0103
876.76  0.0100
876.77  0.0096
876.78  0.0093
876.79  0.0090
876.80  0.0087
876.81  0.0084
876.82  0.0081
876.83  0.0078
876.84  0.0075
876.85  0.0072
876.86  0.0069
876.87  0.0067
876.88  0.0064
876.89  0.0062
876.90  0.0060
876.91  0.0058
876.92  0.0056
876.93  0.0054
876.94  0.0052
876.95  0.0050
876.96  0.0048
876.97  0.0046
876.98  0.0044
876.99  0.0043
877.00  0.0041
877.01  0.0040
877.02  0.0038
877.03  0.0037
877.04  0.0035
877.05  0.0034
877.06  0.0032
877.07  0.0031
877.08  0.0030
877.09  0.0029
877.10  0.0028
877.11  0.0027
877.12  0.0026
877.13  0.0025
877.14  0.0024
877.15  0.0023
877.16  0.0022
877.17  0.0021
877.18  0.0020
877.19  0.0019
877.20  0.0018
877.21  0.0018
877.22  0.0017
877.23  0.0016
877.24  0.0016
877.25  0.0015
877.26  0.0014
877.27  0.0013
877.28  0.0013
877.29  0.0012
877.30  0.0012
877.31  0.0012
877.32  0.0011
877.33  0.0011
877.34  0.0010
877.35  0.0010
877.36  0.0009
877.37  0.0009
877.38  0.0008
877.39  0.0008
877.40  0.0008
877.41  0.0007
877.42  0.0007
877.43  0.0007
877.44  0.0006
877.45  0.0006
877.46  0.0006
877.47  0.0006
