# Provided by ESA in 10/2012
# Important Notes:
# The data contained here correspond to the OLCI Spectral Model CDR derived in 2011.
# The data have been calculated for the camera 4, pointing nadir.
763.90  0.0007
763.91  0.0007
763.92  0.0007
763.93  0.0008
763.94  0.0008
763.95  0.0009
763.96  0.0009
763.97  0.0009
763.98  0.0010
763.99  0.0010
764.00  0.0011
764.01  0.0011
764.02  0.0012
764.03  0.0012
764.04  0.0013
764.05  0.0013
764.06  0.0014
764.07  0.0015
764.08  0.0015
764.09  0.0016
764.10  0.0016
764.11  0.0017
764.12  0.0018
764.13  0.0019
764.14  0.0020
764.15  0.0021
764.16  0.0022
764.17  0.0022
764.18  0.0023
764.19  0.0024
764.20  0.0025
764.21  0.0026
764.22  0.0027
764.23  0.0029
764.24  0.0030
764.25  0.0031
764.26  0.0033
764.27  0.0034
764.28  0.0035
764.29  0.0036
764.30  0.0038
764.31  0.0039
764.32  0.0041
764.33  0.0043
764.34  0.0045
764.35  0.0047
764.36  0.0048
764.37  0.0050
764.38  0.0052
764.39  0.0054
764.40  0.0056
764.41  0.0058
764.42  0.0061
764.43  0.0063
764.44  0.0066
764.45  0.0068
764.46  0.0071
764.47  0.0073
764.48  0.0076
764.49  0.0078
764.50  0.0081
764.51  0.0084
764.52  0.0088
764.53  0.0091
764.54  0.0095
764.55  0.0098
764.56  0.0102
764.57  0.0106
764.58  0.0109
764.59  0.0113
764.60  0.0116
764.61  0.0121
764.62  0.0126
764.63  0.0130
764.64  0.0135
764.65  0.0140
764.66  0.0145
764.67  0.0150
764.68  0.0154
764.69  0.0159
764.70  0.0164
764.71  0.0170
764.72  0.0177
764.73  0.0183
764.74  0.0190
764.75  0.0196
764.76  0.0202
764.77  0.0209
764.78  0.0215
764.79  0.0222
764.80  0.0228
764.81  0.0237
764.82  0.0245
764.83  0.0254
764.84  0.0262
764.85  0.0270
764.86  0.0279
764.87  0.0287
764.88  0.0296
764.89  0.0304
764.90  0.0313
764.91  0.0324
764.92  0.0334
764.93  0.0345
764.94  0.0356
764.95  0.0367
764.96  0.0378
764.97  0.0389
764.98  0.0400
764.99  0.0411
765.00  0.0422
765.01  0.0436
765.02  0.0450
765.03  0.0463
765.04  0.0477
765.05  0.0491
765.06  0.0505
765.07  0.0519
765.08  0.0533
765.09  0.0547
765.10  0.0560
765.11  0.0578
765.12  0.0595
765.13  0.0612
765.14  0.0630
765.15  0.0654
765.16  0.0671
765.17  0.0689
765.18  0.0707
765.19  0.0724
765.20  0.0742
765.21  0.0764
765.22  0.0785
765.23  0.0807
765.24  0.0828
765.25  0.0850
765.26  0.0871
765.27  0.0893
765.28  0.0915
765.29  0.0937
765.30  0.0958
765.31  0.0984
765.32  0.1010
765.33  0.1036
765.34  0.1062
765.35  0.1088
765.36  0.1115
765.37  0.1141
765.38  0.1167
765.39  0.1193
765.40  0.1220
765.41  0.1250
765.42  0.1281
765.43  0.1312
765.44  0.1343
765.45  0.1373
765.46  0.1405
765.47  0.1436
765.48  0.1467
765.49  0.1498
765.50  0.1529
765.51  0.1565
765.52  0.1601
765.53  0.1637
765.54  0.1672
765.55  0.1708
765.56  0.1745
765.57  0.1781
765.58  0.1817
765.59  0.1854
765.60  0.1890
765.61  0.1931
765.62  0.1971
765.63  0.2012
765.64  0.2053
765.65  0.2094
765.66  0.2136
765.67  0.2177
765.68  0.2219
765.69  0.2260
765.70  0.2302
765.71  0.2347
765.72  0.2393
765.73  0.2439
765.74  0.2485
765.75  0.2530
765.76  0.2577
765.77  0.2624
765.78  0.2670
765.79  0.2717
765.80  0.2764
765.81  0.2814
765.82  0.2864
765.83  0.2914
765.84  0.2964
765.85  0.3015
765.86  0.3066
765.87  0.3117
765.88  0.3169
765.89  0.3220
765.90  0.3272
765.91  0.3326
765.92  0.3380
765.93  0.3434
765.94  0.3488
765.95  0.3542
765.96  0.3597
765.97  0.3653
765.98  0.3709
765.99  0.3764
766.00  0.3820
766.01  0.3877
766.02  0.3934
766.03  0.3991
766.04  0.4048
766.05  0.4105
766.06  0.4164
766.07  0.4223
766.08  0.4282
766.09  0.4341
766.10  0.4400
766.11  0.4459
766.12  0.4518
766.13  0.4576
766.14  0.4635
766.15  0.4694
766.16  0.4756
766.17  0.4817
766.18  0.4878
766.19  0.4940
766.20  0.5001
766.21  0.5061
766.22  0.5120
766.23  0.5180
766.24  0.5239
766.25  0.5299
766.26  0.5361
766.27  0.5424
766.28  0.5487
766.29  0.5549
766.30  0.5612
766.31  0.5671
766.32  0.5730
766.33  0.5789
766.34  0.5848
766.35  0.5907
766.36  0.5969
766.37  0.6032
766.38  0.6094
766.39  0.6156
766.40  0.6219
766.41  0.6276
766.42  0.6333
766.43  0.6390
766.44  0.6448
766.45  0.6505
766.46  0.6566
766.47  0.6627
766.48  0.6688
766.49  0.6749
766.50  0.6810
766.51  0.6864
766.52  0.6918
766.53  0.6973
766.54  0.7027
766.55  0.7081
766.56  0.7139
766.57  0.7198
766.58  0.7256
766.59  0.7314
766.60  0.7373
766.61  0.7423
766.62  0.7473
766.63  0.7523
766.64  0.7573
766.65  0.7623
766.66  0.7678
766.67  0.7733
766.68  0.7787
766.69  0.7842
766.70  0.7896
766.71  0.7942
766.72  0.7987
766.73  0.8032
766.74  0.8077
766.75  0.8122
766.76  0.8172
766.77  0.8222
766.78  0.8272
766.79  0.8322
766.80  0.8371
766.81  0.8411
766.82  0.8451
766.83  0.8491
766.84  0.8530
766.85  0.8570
766.86  0.8614
766.87  0.8658
766.88  0.8703
766.89  0.8747
766.90  0.8791
766.91  0.8825
766.92  0.8859
766.93  0.8893
766.94  0.8927
766.95  0.8960
766.96  0.8998
766.97  0.9037
766.98  0.9075
766.99  0.9113
767.00  0.9151
767.01  0.9178
767.02  0.9206
767.03  0.9234
767.04  0.9262
767.05  0.9290
767.06  0.9322
767.07  0.9353
767.08  0.9384
767.09  0.9416
767.10  0.9447
767.11  0.9469
767.12  0.9491
767.13  0.9513
767.14  0.9535
767.15  0.9557
767.16  0.9582
767.17  0.9606
767.18  0.9631
767.19  0.9656
767.20  0.9680
767.21  0.9696
767.22  0.9713
767.23  0.9729
767.24  0.9745
767.25  0.9761
767.26  0.9779
767.27  0.9797
767.28  0.9814
767.29  0.9832
767.30  0.9849
767.31  0.9860
767.32  0.9871
767.33  0.9882
767.34  0.9892
767.35  0.9903
767.36  0.9913
767.37  0.9924
767.38  0.9935
767.39  0.9945
767.40  0.9956
767.41  0.9961
767.42  0.9966
767.43  0.9972
767.44  0.9977
767.45  0.9982
767.46  0.9986
767.47  0.9989
767.48  0.9993
767.49  0.9996
767.50  1.0000
767.51  1.0000
767.52  1.0000
767.53  1.0000
767.54  1.0000
767.55  1.0000
767.56  0.9996
767.57  0.9993
767.58  0.9989
767.59  0.9986
767.60  0.9982
767.61  0.9977
767.62  0.9971
767.63  0.9966
767.64  0.9961
767.65  0.9955
767.66  0.9945
767.67  0.9934
767.68  0.9924
767.69  0.9913
767.70  0.9902
767.71  0.9892
767.72  0.9881
767.73  0.9870
767.74  0.9860
767.75  0.9849
767.76  0.9831
767.77  0.9814
767.78  0.9796
767.79  0.9779
767.80  0.9761
767.81  0.9745
767.82  0.9728
767.83  0.9712
767.84  0.9696
767.85  0.9680
767.86  0.9655
767.87  0.9630
767.88  0.9606
767.89  0.9581
767.90  0.9557
767.91  0.9535
767.92  0.9513
767.93  0.9491
767.94  0.9469
767.95  0.9447
767.96  0.9415
767.97  0.9384
767.98  0.9352
767.99  0.9321
768.00  0.9289
768.01  0.9261
768.02  0.9234
768.03  0.9206
768.04  0.9178
768.05  0.9150
768.06  0.9112
768.07  0.9074
768.08  0.9036
768.09  0.8998
768.10  0.8960
768.11  0.8926
768.12  0.8892
768.13  0.8858
768.14  0.8824
768.15  0.8791
768.16  0.8746
768.17  0.8702
768.18  0.8658
768.19  0.8614
768.20  0.8570
768.21  0.8530
768.22  0.8490
768.23  0.8451
768.24  0.8411
768.25  0.8371
768.26  0.8321
768.27  0.8272
768.28  0.8222
768.29  0.8172
768.30  0.8122
768.31  0.8077
768.32  0.8032
768.33  0.7987
768.34  0.7941
768.35  0.7896
768.36  0.7842
768.37  0.7787
768.38  0.7733
768.39  0.7678
768.40  0.7623
768.41  0.7573
768.42  0.7523
768.43  0.7473
768.44  0.7423
768.45  0.7373
768.46  0.7315
768.47  0.7256
768.48  0.7198
768.49  0.7139
768.50  0.7081
768.51  0.7027
768.52  0.6973
768.53  0.6919
768.54  0.6865
768.55  0.6810
768.56  0.6749
768.57  0.6688
768.58  0.6627
768.59  0.6566
768.60  0.6505
768.61  0.6448
768.62  0.6391
768.63  0.6334
768.64  0.6276
768.65  0.6219
768.66  0.6157
768.67  0.6094
768.68  0.6032
768.69  0.5970
768.70  0.5907
768.71  0.5848
768.72  0.5789
768.73  0.5730
768.74  0.5671
768.75  0.5612
768.76  0.5550
768.77  0.5487
768.78  0.5425
768.79  0.5362
768.80  0.5299
768.81  0.5240
768.82  0.5180
768.83  0.5121
768.84  0.5061
768.85  0.5002
768.86  0.4940
768.87  0.4879
768.88  0.4818
768.89  0.4756
768.90  0.4695
768.91  0.4636
768.92  0.4577
768.93  0.4518
768.94  0.4459
768.95  0.4400
768.96  0.4341
768.97  0.4282
768.98  0.4223
768.99  0.4164
769.00  0.4105
769.01  0.4048
769.02  0.3992
769.03  0.3935
769.04  0.3878
769.05  0.3821
769.06  0.3765
769.07  0.3709
769.08  0.3654
769.09  0.3598
769.10  0.3542
769.11  0.3488
769.12  0.3434
769.13  0.3380
769.14  0.3326
769.15  0.3272
769.16  0.3221
769.17  0.3170
769.18  0.3118
769.19  0.3067
769.20  0.3015
769.21  0.2965
769.22  0.2915
769.23  0.2865
769.24  0.2814
769.25  0.2764
769.26  0.2718
769.27  0.2671
769.28  0.2624
769.29  0.2578
769.30  0.2531
769.31  0.2485
769.32  0.2439
769.33  0.2394
769.34  0.2348
769.35  0.2302
769.36  0.2261
769.37  0.2219
769.38  0.2178
769.39  0.2136
769.40  0.2095
769.41  0.2054
769.42  0.2013
769.43  0.1972
769.44  0.1931
769.45  0.1890
769.46  0.1854
769.47  0.1818
769.48  0.1781
769.49  0.1745
769.50  0.1709
769.51  0.1673
769.52  0.1637
769.53  0.1601
769.54  0.1566
769.55  0.1530
769.56  0.1499
769.57  0.1467
769.58  0.1436
769.59  0.1405
769.60  0.1374
769.61  0.1343
769.62  0.1312
769.63  0.1282
769.64  0.1251
769.65  0.1220
769.66  0.1194
769.67  0.1167
769.68  0.1141
769.69  0.1115
769.70  0.1089
769.71  0.1063
769.72  0.1037
769.73  0.1011
769.74  0.0985
769.75  0.0959
769.76  0.0937
769.77  0.0915
769.78  0.0893
769.79  0.0872
769.80  0.0850
769.81  0.0828
769.82  0.0807
769.83  0.0785
769.84  0.0764
769.85  0.0742
769.86  0.0725
769.87  0.0707
769.88  0.0689
769.89  0.0672
769.90  0.0654
769.91  0.0630
769.92  0.0613
769.93  0.0595
769.94  0.0578
769.95  0.0561
769.96  0.0547
769.97  0.0533
769.98  0.0519
769.99  0.0505
770.00  0.0491
770.01  0.0477
770.02  0.0464
770.03  0.0450
770.04  0.0436
770.05  0.0422
770.06  0.0411
770.07  0.0400
770.08  0.0389
770.09  0.0378
770.10  0.0367
770.11  0.0356
770.12  0.0346
770.13  0.0335
770.14  0.0324
770.15  0.0313
770.16  0.0304
770.17  0.0296
770.18  0.0287
770.19  0.0279
770.20  0.0271
770.21  0.0262
770.22  0.0254
770.23  0.0245
770.24  0.0237
770.25  0.0228
770.26  0.0222
770.27  0.0215
770.28  0.0209
770.29  0.0203
770.30  0.0196
770.31  0.0190
770.32  0.0183
770.33  0.0177
770.34  0.0170
770.35  0.0164
770.36  0.0159
770.37  0.0154
770.38  0.0150
770.39  0.0145
770.40  0.0140
770.41  0.0135
770.42  0.0131
770.43  0.0126
770.44  0.0121
770.45  0.0116
770.46  0.0113
770.47  0.0109
770.48  0.0106
770.49  0.0102
770.50  0.0099
770.51  0.0095
770.52  0.0091
770.53  0.0088
770.54  0.0084
770.55  0.0081
770.56  0.0078
770.57  0.0076
770.58  0.0073
770.59  0.0071
770.60  0.0068
770.61  0.0066
770.62  0.0063
770.63  0.0061
770.64  0.0058
770.65  0.0056
770.66  0.0054
770.67  0.0052
770.68  0.0050
770.69  0.0048
770.70  0.0047
770.71  0.0045
770.72  0.0043
770.73  0.0041
770.74  0.0039
770.75  0.0038
770.76  0.0036
770.77  0.0035
770.78  0.0034
770.79  0.0033
770.80  0.0031
770.81  0.0030
770.82  0.0029
770.83  0.0028
770.84  0.0026
770.85  0.0025
770.86  0.0024
770.87  0.0023
770.88  0.0022
770.89  0.0022
770.90  0.0021
770.91  0.0020
770.92  0.0019
770.93  0.0018
770.94  0.0017
770.95  0.0016
770.96  0.0016
770.97  0.0015
770.98  0.0015
770.99  0.0014
771.00  0.0013
771.01  0.0013
771.02  0.0012
771.03  0.0012
771.04  0.0011
771.05  0.0011
771.06  0.0010
771.07  0.0010
771.08  0.0009
771.09  0.0009
771.10  0.0009
771.11  0.0008
771.12  0.0008
771.13  0.0007
771.14  0.0007
771.15  0.0007
