# Provided by ESA in 10/2012
# Important Notes:
# The data contained here correspond to the OLCI Spectral Model CDR derived in 2011.
# The data have been calculated for the camera 4, pointing nadir.
657.62  0.0006
657.63  0.0006
657.64  0.0007
657.65  0.0007
657.66  0.0007
657.67  0.0008
657.68  0.0008
657.69  0.0008
657.70  0.0009
657.71  0.0009
657.72  0.0009
657.73  0.0010
657.74  0.0010
657.75  0.0011
657.76  0.0011
657.77  0.0012
657.78  0.0013
657.79  0.0013
657.80  0.0014
657.81  0.0014
657.82  0.0015
657.83  0.0015
657.84  0.0016
657.85  0.0017
657.86  0.0018
657.87  0.0018
657.88  0.0019
657.89  0.0020
657.90  0.0021
657.91  0.0021
657.92  0.0022
657.93  0.0023
657.94  0.0024
657.95  0.0026
657.96  0.0027
657.97  0.0028
657.98  0.0029
657.99  0.0030
658.00  0.0031
658.01  0.0032
658.02  0.0033
658.03  0.0035
658.04  0.0037
658.05  0.0038
658.06  0.0040
658.07  0.0041
658.08  0.0043
658.09  0.0045
658.10  0.0046
658.11  0.0048
658.12  0.0049
658.13  0.0052
658.14  0.0054
658.15  0.0056
658.16  0.0059
658.17  0.0061
658.18  0.0063
658.19  0.0065
658.20  0.0068
658.21  0.0070
658.22  0.0072
658.23  0.0075
658.24  0.0078
658.25  0.0082
658.26  0.0085
658.27  0.0088
658.28  0.0091
658.29  0.0094
658.30  0.0097
658.31  0.0100
658.32  0.0104
658.33  0.0108
658.34  0.0112
658.35  0.0116
658.36  0.0121
658.37  0.0125
658.38  0.0129
658.39  0.0133
658.40  0.0138
658.41  0.0142
658.42  0.0146
658.43  0.0152
658.44  0.0158
658.45  0.0163
658.46  0.0169
658.47  0.0175
658.48  0.0181
658.49  0.0186
658.50  0.0192
658.51  0.0198
658.52  0.0204
658.53  0.0211
658.54  0.0219
658.55  0.0226
658.56  0.0234
658.57  0.0241
658.58  0.0249
658.59  0.0256
658.60  0.0264
658.61  0.0271
658.62  0.0279
658.63  0.0289
658.64  0.0299
658.65  0.0308
658.66  0.0318
658.67  0.0328
658.68  0.0338
658.69  0.0347
658.70  0.0357
658.71  0.0367
658.72  0.0377
658.73  0.0389
658.74  0.0401
658.75  0.0414
658.76  0.0426
658.77  0.0439
658.78  0.0451
658.79  0.0463
658.80  0.0476
658.81  0.0488
658.82  0.0500
658.83  0.0516
658.84  0.0531
658.85  0.0547
658.86  0.0562
658.87  0.0584
658.88  0.0600
658.89  0.0615
658.90  0.0631
658.91  0.0647
658.92  0.0663
658.93  0.0682
658.94  0.0701
658.95  0.0721
658.96  0.0740
658.97  0.0759
658.98  0.0778
658.99  0.0798
659.00  0.0817
659.01  0.0837
659.02  0.0856
659.03  0.0879
659.04  0.0903
659.05  0.0926
659.06  0.0949
659.07  0.0972
659.08  0.0996
659.09  0.1019
659.10  0.1043
659.11  0.1066
659.12  0.1090
659.13  0.1117
659.14  0.1145
659.15  0.1173
659.16  0.1200
659.17  0.1228
659.18  0.1255
659.19  0.1283
659.20  0.1311
659.21  0.1339
659.22  0.1367
659.23  0.1399
659.24  0.1431
659.25  0.1463
659.26  0.1495
659.27  0.1527
659.28  0.1560
659.29  0.1592
659.30  0.1625
659.31  0.1657
659.32  0.1690
659.33  0.1726
659.34  0.1763
659.35  0.1799
659.36  0.1836
659.37  0.1873
659.38  0.1910
659.39  0.1947
659.40  0.1984
659.41  0.2021
659.42  0.2059
659.43  0.2100
659.44  0.2140
659.45  0.2181
659.46  0.2222
659.47  0.2263
659.48  0.2305
659.49  0.2347
659.50  0.2389
659.51  0.2430
659.52  0.2472
659.53  0.2517
659.54  0.2562
659.55  0.2607
659.56  0.2652
659.57  0.2697
659.58  0.2743
659.59  0.2789
659.60  0.2835
659.61  0.2881
659.62  0.2928
659.63  0.2976
659.64  0.3024
659.65  0.3073
659.66  0.3121
659.67  0.3170
659.68  0.3219
659.69  0.3269
659.70  0.3319
659.71  0.3369
659.72  0.3419
659.73  0.3470
659.74  0.3521
659.75  0.3572
659.76  0.3623
659.77  0.3674
659.78  0.3727
659.79  0.3780
659.80  0.3833
659.81  0.3886
659.82  0.3939
659.83  0.3992
659.84  0.4044
659.85  0.4097
659.86  0.4150
659.87  0.4203
659.88  0.4258
659.89  0.4313
659.90  0.4368
659.91  0.4423
659.92  0.4478
659.93  0.4532
659.94  0.4585
659.95  0.4639
659.96  0.4692
659.97  0.4745
659.98  0.4802
659.99  0.4858
660.00  0.4914
660.01  0.4970
660.02  0.5026
660.03  0.5079
660.04  0.5132
660.05  0.5185
660.06  0.5238
660.07  0.5291
660.08  0.5347
660.09  0.5403
660.10  0.5459
660.11  0.5515
660.12  0.5577
660.13  0.5629
660.14  0.5681
660.15  0.5733
660.16  0.5784
660.17  0.5836
660.18  0.5891
660.19  0.5946
660.20  0.6002
660.21  0.6057
660.22  0.6112
660.23  0.6161
660.24  0.6210
660.25  0.6260
660.26  0.6309
660.27  0.6358
660.28  0.6411
660.29  0.6464
660.30  0.6517
660.31  0.6570
660.32  0.6623
660.33  0.6669
660.34  0.6715
660.35  0.6761
660.36  0.6807
660.37  0.6852
660.38  0.6902
660.39  0.6952
660.40  0.7002
660.41  0.7052
660.42  0.7102
660.43  0.7144
660.44  0.7186
660.45  0.7227
660.46  0.7269
660.47  0.7311
660.48  0.7357
660.49  0.7403
660.50  0.7449
660.51  0.7495
660.52  0.7541
660.53  0.7578
660.54  0.7616
660.55  0.7653
660.56  0.7691
660.57  0.7728
660.58  0.7770
660.59  0.7811
660.60  0.7852
660.61  0.7894
660.62  0.7935
660.63  0.7968
660.64  0.8001
660.65  0.8034
660.66  0.8067
660.67  0.8100
660.68  0.8136
660.69  0.8173
660.70  0.8210
660.71  0.8246
660.72  0.8283
660.73  0.8311
660.74  0.8340
660.75  0.8368
660.76  0.8396
660.77  0.8425
660.78  0.8456
660.79  0.8488
660.80  0.8520
660.81  0.8551
660.82  0.8583
660.83  0.8607
660.84  0.8631
660.85  0.8655
660.86  0.8680
660.87  0.8704
660.88  0.8731
660.89  0.8757
660.90  0.8784
660.91  0.8810
660.92  0.8837
660.93  0.8857
660.94  0.8878
660.95  0.8899
660.96  0.8919
660.97  0.8940
660.98  0.8962
660.99  0.8983
661.00  0.9005
661.01  0.9027
661.02  0.9049
661.03  0.9066
661.04  0.9084
661.05  0.9101
661.06  0.9118
661.07  0.9136
661.08  0.9153
661.09  0.9170
661.10  0.9188
661.11  0.9205
661.12  0.9222
661.13  0.9237
661.14  0.9252
661.15  0.9267
661.16  0.9282
661.17  0.9296
661.18  0.9310
661.19  0.9323
661.20  0.9336
661.21  0.9349
661.22  0.9362
661.23  0.9375
661.24  0.9388
661.25  0.9401
661.26  0.9413
661.27  0.9426
661.28  0.9436
661.29  0.9445
661.30  0.9455
661.31  0.9464
661.32  0.9474
661.33  0.9485
661.34  0.9496
661.35  0.9507
661.36  0.9518
661.37  0.9535
661.38  0.9542
661.39  0.9548
661.40  0.9555
661.41  0.9562
661.42  0.9568
661.43  0.9578
661.44  0.9588
661.45  0.9598
661.46  0.9609
661.47  0.9619
661.48  0.9623
661.49  0.9627
661.50  0.9631
661.51  0.9635
661.52  0.9639
661.53  0.9648
661.54  0.9657
661.55  0.9666
661.56  0.9675
661.57  0.9684
661.58  0.9686
661.59  0.9687
661.60  0.9689
661.61  0.9691
661.62  0.9693
661.63  0.9701
661.64  0.9709
661.65  0.9717
661.66  0.9726
661.67  0.9734
661.68  0.9734
661.69  0.9734
661.70  0.9734
661.71  0.9734
661.72  0.9734
661.73  0.9741
661.74  0.9749
661.75  0.9756
661.76  0.9763
661.77  0.9771
661.78  0.9770
661.79  0.9768
661.80  0.9767
661.81  0.9766
661.82  0.9765
661.83  0.9771
661.84  0.9778
661.85  0.9784
661.86  0.9791
661.87  0.9797
661.88  0.9795
661.89  0.9793
661.90  0.9791
661.91  0.9789
661.92  0.9787
661.93  0.9792
661.94  0.9798
661.95  0.9804
661.96  0.9809
661.97  0.9815
661.98  0.9812
661.99  0.9810
662.00  0.9807
662.01  0.9805
662.02  0.9802
662.03  0.9807
662.04  0.9812
662.05  0.9817
662.06  0.9821
662.07  0.9826
662.08  0.9824
662.09  0.9821
662.10  0.9818
662.11  0.9816
662.12  0.9813
662.13  0.9817
662.14  0.9821
662.15  0.9825
662.16  0.9829
662.17  0.9832
662.18  0.9830
662.19  0.9828
662.20  0.9826
662.21  0.9823
662.22  0.9821
662.23  0.9824
662.24  0.9827
662.25  0.9830
662.26  0.9832
662.27  0.9835
662.28  0.9834
662.29  0.9832
662.30  0.9831
662.31  0.9829
662.32  0.9827
662.33  0.9829
662.34  0.9831
662.35  0.9833
662.36  0.9835
662.37  0.9836
662.38  0.9836
662.39  0.9835
662.40  0.9834
662.41  0.9834
662.42  0.9833
662.43  0.9834
662.44  0.9834
662.45  0.9835
662.46  0.9836
662.47  0.9837
662.48  0.9837
662.49  0.9837
662.50  0.9837
662.51  0.9838
662.52  0.9838
662.53  0.9838
662.54  0.9838
662.55  0.9837
662.56  0.9837
662.57  0.9837
662.58  0.9838
662.59  0.9839
662.60  0.9840
662.61  0.9842
662.62  0.9849
662.63  0.9848
662.64  0.9847
662.65  0.9846
662.66  0.9845
662.67  0.9844
662.68  0.9847
662.69  0.9849
662.70  0.9852
662.71  0.9854
662.72  0.9857
662.73  0.9855
662.74  0.9853
662.75  0.9851
662.76  0.9850
662.77  0.9848
662.78  0.9851
662.79  0.9854
662.80  0.9858
662.81  0.9861
662.82  0.9864
662.83  0.9862
662.84  0.9859
662.85  0.9857
662.86  0.9854
662.87  0.9852
662.88  0.9855
662.89  0.9859
662.90  0.9863
662.91  0.9867
662.92  0.9871
662.93  0.9868
662.94  0.9865
662.95  0.9862
662.96  0.9858
662.97  0.9855
662.98  0.9860
662.99  0.9864
663.00  0.9868
663.01  0.9872
663.02  0.9876
663.03  0.9873
663.04  0.9869
663.05  0.9866
663.06  0.9862
663.07  0.9859
663.08  0.9863
663.09  0.9867
663.10  0.9871
663.11  0.9876
663.12  0.9880
663.13  0.9876
663.14  0.9873
663.15  0.9869
663.16  0.9865
663.17  0.9861
663.18  0.9865
663.19  0.9869
663.20  0.9873
663.21  0.9878
663.22  0.9882
663.23  0.9878
663.24  0.9874
663.25  0.9871
663.26  0.9867
663.27  0.9863
663.28  0.9867
663.29  0.9870
663.30  0.9874
663.31  0.9878
663.32  0.9881
663.33  0.9878
663.34  0.9875
663.35  0.9871
663.36  0.9868
663.37  0.9865
663.38  0.9868
663.39  0.9871
663.40  0.9874
663.41  0.9877
663.42  0.9880
663.43  0.9877
663.44  0.9874
663.45  0.9872
663.46  0.9869
663.47  0.9866
663.48  0.9868
663.49  0.9871
663.50  0.9873
663.51  0.9875
663.52  0.9878
663.53  0.9876
663.54  0.9874
663.55  0.9872
663.56  0.9870
663.57  0.9868
663.58  0.9869
663.59  0.9871
663.60  0.9872
663.61  0.9874
663.62  0.9875
663.63  0.9868
663.64  0.9868
663.65  0.9867
663.66  0.9866
663.67  0.9865
663.68  0.9866
663.69  0.9867
663.70  0.9868
663.71  0.9869
663.72  0.9869
663.73  0.9870
663.74  0.9870
663.75  0.9870
663.76  0.9870
663.77  0.9871
663.78  0.9870
663.79  0.9870
663.80  0.9870
663.81  0.9870
663.82  0.9869
663.83  0.9871
663.84  0.9872
663.85  0.9873
663.86  0.9874
663.87  0.9882
663.88  0.9881
663.89  0.9880
663.90  0.9879
663.91  0.9878
663.92  0.9877
663.93  0.9879
663.94  0.9882
663.95  0.9884
663.96  0.9887
663.97  0.9889
663.98  0.9887
663.99  0.9886
664.00  0.9884
664.01  0.9882
664.02  0.9880
664.03  0.9884
664.04  0.9887
664.05  0.9890
664.06  0.9893
664.07  0.9897
664.08  0.9894
664.09  0.9892
664.10  0.9889
664.11  0.9887
664.12  0.9884
664.13  0.9888
664.14  0.9892
664.15  0.9896
664.16  0.9900
664.17  0.9904
664.18  0.9900
664.19  0.9897
664.20  0.9894
664.21  0.9891
664.22  0.9888
664.23  0.9892
664.24  0.9896
664.25  0.9901
664.26  0.9905
664.27  0.9909
664.28  0.9905
664.29  0.9902
664.30  0.9898
664.31  0.9895
664.32  0.9891
664.33  0.9896
664.34  0.9900
664.35  0.9904
664.36  0.9908
664.37  0.9913
664.38  0.9909
664.39  0.9905
664.40  0.9901
664.41  0.9898
664.42  0.9894
664.43  0.9898
664.44  0.9902
664.45  0.9906
664.46  0.9910
664.47  0.9914
664.48  0.9911
664.49  0.9907
664.50  0.9903
664.51  0.9899
664.52  0.9896
664.53  0.9899
664.54  0.9903
664.55  0.9907
664.56  0.9910
664.57  0.9914
664.58  0.9911
664.59  0.9907
664.60  0.9904
664.61  0.9901
664.62  0.9897
664.63  0.9900
664.64  0.9903
664.65  0.9906
664.66  0.9909
664.67  0.9912
664.68  0.9910
664.69  0.9907
664.70  0.9904
664.71  0.9901
664.72  0.9899
664.73  0.9901
664.74  0.9903
664.75  0.9905
664.76  0.9908
664.77  0.9910
664.78  0.9908
664.79  0.9906
664.80  0.9904
664.81  0.9902
664.82  0.9900
664.83  0.9902
664.84  0.9903
664.85  0.9905
664.86  0.9906
664.87  0.9908
664.88  0.9901
664.89  0.9900
664.90  0.9899
664.91  0.9899
664.92  0.9898
664.93  0.9899
664.94  0.9899
664.95  0.9900
664.96  0.9901
664.97  0.9902
664.98  0.9902
664.99  0.9902
665.00  0.9903
665.01  0.9903
665.02  0.9903
665.03  0.9903
665.04  0.9903
665.05  0.9903
665.06  0.9902
665.07  0.9902
665.08  0.9904
665.09  0.9905
665.10  0.9906
665.11  0.9908
665.12  0.9915
665.13  0.9914
665.14  0.9913
665.15  0.9912
665.16  0.9912
665.17  0.9911
665.18  0.9913
665.19  0.9916
665.20  0.9918
665.21  0.9921
665.22  0.9923
665.23  0.9922
665.24  0.9920
665.25  0.9918
665.26  0.9917
665.27  0.9915
665.28  0.9918
665.29  0.9922
665.30  0.9925
665.31  0.9928
665.32  0.9932
665.33  0.9929
665.34  0.9927
665.35  0.9924
665.36  0.9922
665.37  0.9919
665.38  0.9923
665.39  0.9927
665.40  0.9931
665.41  0.9935
665.42  0.9939
665.43  0.9936
665.44  0.9933
665.45  0.9930
665.46  0.9927
665.47  0.9924
665.48  0.9928
665.49  0.9933
665.50  0.9937
665.51  0.9941
665.52  0.9945
665.53  0.9942
665.54  0.9938
665.55  0.9935
665.56  0.9931
665.57  0.9928
665.58  0.9932
665.59  0.9937
665.60  0.9941
665.61  0.9945
665.62  0.9950
665.63  0.9946
665.64  0.9942
665.65  0.9939
665.66  0.9935
665.67  0.9931
665.68  0.9935
665.69  0.9940
665.70  0.9944
665.71  0.9948
665.72  0.9952
665.73  0.9948
665.74  0.9945
665.75  0.9941
665.76  0.9938
665.77  0.9934
665.78  0.9938
665.79  0.9941
665.80  0.9945
665.81  0.9949
665.82  0.9953
665.83  0.9949
665.84  0.9946
665.85  0.9943
665.86  0.9939
665.87  0.9936
665.88  0.9939
665.89  0.9942
665.90  0.9946
665.91  0.9949
665.92  0.9952
665.93  0.9949
665.94  0.9946
665.95  0.9944
665.96  0.9941
665.97  0.9938
665.98  0.9941
665.99  0.9943
666.00  0.9945
666.01  0.9948
666.02  0.9950
666.03  0.9948
666.04  0.9946
666.05  0.9945
666.06  0.9943
666.07  0.9941
666.08  0.9942
666.09  0.9944
666.10  0.9945
666.11  0.9947
666.12  0.9948
666.13  0.9942
666.14  0.9941
666.15  0.9940
666.16  0.9940
666.17  0.9939
666.18  0.9940
666.19  0.9941
666.20  0.9942
666.21  0.9942
666.22  0.9943
666.23  0.9944
666.24  0.9944
666.25  0.9944
666.26  0.9945
666.27  0.9945
666.28  0.9945
666.29  0.9945
666.30  0.9944
666.31  0.9944
666.32  0.9944
666.33  0.9945
666.34  0.9947
666.35  0.9948
666.36  0.9949
666.37  0.9957
666.38  0.9956
666.39  0.9955
666.40  0.9954
666.41  0.9953
666.42  0.9952
666.43  0.9955
666.44  0.9958
666.45  0.9960
666.46  0.9963
666.47  0.9965
666.48  0.9963
666.49  0.9962
666.50  0.9960
666.51  0.9958
666.52  0.9957
666.53  0.9960
666.54  0.9963
666.55  0.9967
666.56  0.9970
666.57  0.9973
666.58  0.9971
666.59  0.9969
666.60  0.9966
666.61  0.9964
666.62  0.9961
666.63  0.9965
666.64  0.9969
666.65  0.9973
666.66  0.9977
666.67  0.9981
666.68  0.9978
666.69  0.9975
666.70  0.9972
666.71  0.9969
666.72  0.9966
666.73  0.9970
666.74  0.9974
666.75  0.9979
666.76  0.9983
666.77  0.9987
666.78  0.9984
666.79  0.9980
666.80  0.9977
666.81  0.9973
666.82  0.9970
666.83  0.9974
666.84  0.9978
666.85  0.9983
666.86  0.9987
666.87  0.9992
666.88  0.9988
666.89  0.9984
666.90  0.9980
666.91  0.9977
666.92  0.9973
666.93  0.9977
666.94  0.9981
666.95  0.9986
666.96  0.9990
666.97  0.9994
666.98  0.9990
666.99  0.9987
667.00  0.9983
667.01  0.9979
667.02  0.9976
667.03  0.9979
667.04  0.9983
667.05  0.9987
667.06  0.9991
667.07  0.9994
667.08  0.9991
667.09  0.9988
667.10  0.9984
667.11  0.9981
667.12  0.9978
667.13  0.9981
667.14  0.9984
667.15  0.9987
667.16  0.9990
667.17  0.9993
667.18  0.9991
667.19  0.9988
667.20  0.9985
667.21  0.9983
667.22  0.9980
667.23  0.9982
667.24  0.9985
667.25  0.9987
667.26  0.9989
667.27  0.9992
667.28  0.9990
667.29  0.9988
667.30  0.9986
667.31  0.9984
667.32  0.9982
667.33  0.9984
667.34  0.9985
667.35  0.9987
667.36  0.9988
667.37  0.9990
667.38  0.9983
667.39  0.9983
667.40  0.9982
667.41  0.9981
667.42  0.9981
667.43  0.9981
667.44  0.9982
667.45  0.9983
667.46  0.9984
667.47  0.9985
667.48  0.9985
667.49  0.9986
667.50  0.9986
667.51  0.9986
667.52  0.9987
667.53  0.9986
667.54  0.9986
667.55  0.9986
667.56  0.9986
667.57  0.9986
667.58  0.9987
667.59  0.9988
667.60  0.9990
667.61  0.9991
667.62  0.9992
667.63  0.9991
667.64  0.9990
667.65  0.9988
667.66  0.9987
667.67  0.9986
667.68  0.9988
667.69  0.9990
667.70  0.9993
667.71  0.9995
667.72  0.9997
667.73  0.9995
667.74  0.9992
667.75  0.9990
667.76  0.9988
667.77  0.9986
667.78  0.9989
667.79  0.9991
667.80  0.9994
667.81  0.9997
667.82  1.0000
667.83  0.9997
667.84  0.9993
667.85  0.9990
667.86  0.9987
667.87  0.9984
667.88  0.9987
667.89  0.9990
667.90  0.9993
667.91  0.9996
667.92  1.0000
667.93  0.9995
667.94  0.9991
667.95  0.9987
667.96  0.9983
667.97  0.9978
667.98  0.9982
667.99  0.9985
668.00  0.9988
668.01  0.9991
668.02  0.9994
668.03  0.9989
668.04  0.9984
668.05  0.9979
668.06  0.9974
668.07  0.9968
668.08  0.9971
668.09  0.9974
668.10  0.9977
668.11  0.9979
668.12  0.9982
668.13  0.9976
668.14  0.9970
668.15  0.9964
668.16  0.9958
668.17  0.9952
668.18  0.9954
668.19  0.9956
668.20  0.9957
668.21  0.9959
668.22  0.9961
668.23  0.9954
668.24  0.9947
668.25  0.9940
668.26  0.9934
668.27  0.9927
668.28  0.9927
668.29  0.9928
668.30  0.9928
668.31  0.9929
668.32  0.9929
668.33  0.9922
668.34  0.9914
668.35  0.9906
668.36  0.9898
668.37  0.9891
668.38  0.9889
668.39  0.9888
668.40  0.9887
668.41  0.9886
668.42  0.9884
668.43  0.9876
668.44  0.9867
668.45  0.9858
668.46  0.9850
668.47  0.9841
668.48  0.9838
668.49  0.9834
668.50  0.9831
668.51  0.9827
668.52  0.9824
668.53  0.9814
668.54  0.9804
668.55  0.9795
668.56  0.9785
668.57  0.9775
668.58  0.9769
668.59  0.9763
668.60  0.9757
668.61  0.9750
668.62  0.9744
668.63  0.9727
668.64  0.9717
668.65  0.9706
668.66  0.9695
668.67  0.9684
668.68  0.9675
668.69  0.9666
668.70  0.9657
668.71  0.9648
668.72  0.9638
668.73  0.9626
668.74  0.9614
668.75  0.9601
668.76  0.9589
668.77  0.9576
668.78  0.9563
668.79  0.9550
668.80  0.9537
668.81  0.9524
668.82  0.9512
668.83  0.9497
668.84  0.9482
668.85  0.9468
668.86  0.9453
668.87  0.9439
668.88  0.9421
668.89  0.9404
668.90  0.9387
668.91  0.9370
668.92  0.9353
668.93  0.9336
668.94  0.9318
668.95  0.9301
668.96  0.9284
668.97  0.9266
668.98  0.9245
668.99  0.9223
669.00  0.9201
669.01  0.9179
669.02  0.9158
669.03  0.9137
669.04  0.9117
669.05  0.9096
669.06  0.9075
669.07  0.9055
669.08  0.9028
669.09  0.9002
669.10  0.8975
669.11  0.8948
669.12  0.8921
669.13  0.8897
669.14  0.8873
669.15  0.8848
669.16  0.8824
669.17  0.8800
669.18  0.8768
669.19  0.8736
669.20  0.8704
669.21  0.8672
669.22  0.8640
669.23  0.8612
669.24  0.8583
669.25  0.8554
669.26  0.8526
669.27  0.8497
669.28  0.8460
669.29  0.8423
669.30  0.8386
669.31  0.8349
669.32  0.8312
669.33  0.8279
669.34  0.8245
669.35  0.8212
669.36  0.8179
669.37  0.8146
669.38  0.8104
669.39  0.8062
669.40  0.8019
669.41  0.7977
669.42  0.7935
669.43  0.7897
669.44  0.7859
669.45  0.7821
669.46  0.7783
669.47  0.7745
669.48  0.7699
669.49  0.7652
669.50  0.7605
669.51  0.7558
669.52  0.7512
669.53  0.7469
669.54  0.7427
669.55  0.7384
669.56  0.7341
669.57  0.7299
669.58  0.7248
669.59  0.7197
669.60  0.7146
669.61  0.7095
669.62  0.7045
669.63  0.6998
669.64  0.6951
669.65  0.6904
669.66  0.6858
669.67  0.6811
669.68  0.6757
669.69  0.6703
669.70  0.6649
669.71  0.6594
669.72  0.6540
669.73  0.6490
669.74  0.6440
669.75  0.6390
669.76  0.6339
669.77  0.6289
669.78  0.6233
669.79  0.6176
669.80  0.6120
669.81  0.6063
669.82  0.6007
669.83  0.5954
669.84  0.5901
669.85  0.5848
669.86  0.5795
669.87  0.5742
669.88  0.5679
669.89  0.5621
669.90  0.5564
669.91  0.5507
669.92  0.5449
669.93  0.5395
669.94  0.5341
669.95  0.5286
669.96  0.5232
669.97  0.5178
669.98  0.5120
669.99  0.5063
670.00  0.5005
670.01  0.4948
670.02  0.4890
670.03  0.4835
670.04  0.4781
670.05  0.4726
670.06  0.4671
670.07  0.4616
670.08  0.4560
670.09  0.4503
670.10  0.4447
670.11  0.4390
670.12  0.4334
670.13  0.4279
670.14  0.4225
670.15  0.4171
670.16  0.4117
670.17  0.4063
670.18  0.4008
670.19  0.3954
670.20  0.3900
670.21  0.3845
670.22  0.3791
670.23  0.3738
670.24  0.3686
670.25  0.3633
670.26  0.3581
670.27  0.3528
670.28  0.3477
670.29  0.3426
670.30  0.3375
670.31  0.3323
670.32  0.3272
670.33  0.3222
670.34  0.3172
670.35  0.3123
670.36  0.3073
670.37  0.3023
670.38  0.2976
670.39  0.2928
670.40  0.2881
670.41  0.2833
670.42  0.2786
670.43  0.2740
670.44  0.2693
670.45  0.2647
670.46  0.2601
670.47  0.2555
670.48  0.2511
670.49  0.2468
670.50  0.2425
670.51  0.2382
670.52  0.2339
670.53  0.2297
670.54  0.2255
670.55  0.2213
670.56  0.2171
670.57  0.2128
670.58  0.2090
670.59  0.2052
670.60  0.2013
670.61  0.1975
670.62  0.1937
670.63  0.1899
670.64  0.1861
670.65  0.1823
670.66  0.1786
670.67  0.1748
670.68  0.1715
670.69  0.1681
670.70  0.1647
670.71  0.1614
670.72  0.1580
670.73  0.1547
670.74  0.1514
670.75  0.1481
670.76  0.1448
670.77  0.1415
670.78  0.1386
670.79  0.1357
670.80  0.1329
670.81  0.1300
670.82  0.1271
670.83  0.1243
670.84  0.1214
670.85  0.1186
670.86  0.1157
670.87  0.1129
670.88  0.1105
670.89  0.1080
670.90  0.1056
670.91  0.1032
670.92  0.1007
670.93  0.0983
670.94  0.0959
670.95  0.0935
670.96  0.0911
670.97  0.0887
670.98  0.0867
670.99  0.0847
671.00  0.0827
671.01  0.0807
671.02  0.0787
671.03  0.0767
671.04  0.0747
671.05  0.0727
671.06  0.0707
671.07  0.0687
671.08  0.0671
671.09  0.0655
671.10  0.0638
671.11  0.0622
671.12  0.0606
671.13  0.0583
671.14  0.0567
671.15  0.0551
671.16  0.0535
671.17  0.0519
671.18  0.0506
671.19  0.0494
671.20  0.0481
671.21  0.0468
671.22  0.0455
671.23  0.0442
671.24  0.0429
671.25  0.0417
671.26  0.0404
671.27  0.0391
671.28  0.0381
671.29  0.0371
671.30  0.0361
671.31  0.0351
671.32  0.0340
671.33  0.0330
671.34  0.0320
671.35  0.0310
671.36  0.0300
671.37  0.0290
671.38  0.0282
671.39  0.0274
671.40  0.0266
671.41  0.0259
671.42  0.0251
671.43  0.0243
671.44  0.0235
671.45  0.0227
671.46  0.0219
671.47  0.0212
671.48  0.0206
671.49  0.0200
671.50  0.0194
671.51  0.0188
671.52  0.0182
671.53  0.0176
671.54  0.0170
671.55  0.0164
671.56  0.0158
671.57  0.0152
671.58  0.0148
671.59  0.0143
671.60  0.0139
671.61  0.0134
671.62  0.0130
671.63  0.0126
671.64  0.0121
671.65  0.0117
671.66  0.0112
671.67  0.0108
671.68  0.0104
671.69  0.0101
671.70  0.0098
671.71  0.0095
671.72  0.0091
671.73  0.0088
671.74  0.0085
671.75  0.0082
671.76  0.0078
671.77  0.0075
671.78  0.0073
671.79  0.0070
671.80  0.0068
671.81  0.0066
671.82  0.0063
671.83  0.0061
671.84  0.0059
671.85  0.0056
671.86  0.0054
671.87  0.0052
671.88  0.0050
671.89  0.0048
671.90  0.0047
671.91  0.0045
671.92  0.0043
671.93  0.0042
671.94  0.0040
671.95  0.0038
671.96  0.0037
671.97  0.0035
671.98  0.0034
671.99  0.0033
672.00  0.0031
672.01  0.0030
672.02  0.0029
672.03  0.0028
672.04  0.0027
672.05  0.0026
672.06  0.0024
672.07  0.0023
672.08  0.0022
672.09  0.0022
672.10  0.0021
672.11  0.0020
672.12  0.0019
672.13  0.0018
672.14  0.0018
672.15  0.0017
672.16  0.0016
672.17  0.0015
672.18  0.0015
672.19  0.0014
672.20  0.0014
672.21  0.0013
672.22  0.0013
672.23  0.0012
672.24  0.0011
672.25  0.0011
672.26  0.0010
672.27  0.0010
672.28  0.0009
672.29  0.0009
672.30  0.0009
672.31  0.0008
672.32  0.0008
672.33  0.0008
672.34  0.0007
672.35  0.0007
672.36  0.0007
672.37  0.0006
