# Provided by ESA in 10/2012
# Important Notes:
# The data contained here correspond to the OLCI Spectral Model CDR derived in 2011.
# The data have been calculated for the camera 4, pointing nadir.
483.00  0.0006
483.01  0.0006
483.02  0.0007
483.03  0.0007
483.04  0.0008
483.05  0.0008
483.06  0.0008
483.07  0.0009
483.08  0.0009
483.09  0.0009
483.10  0.0010
483.11  0.0010
483.12  0.0011
483.13  0.0011
483.14  0.0012
483.15  0.0012
483.16  0.0013
483.17  0.0013
483.18  0.0014
483.19  0.0014
483.20  0.0015
483.21  0.0016
483.22  0.0017
483.23  0.0017
483.24  0.0018
483.25  0.0019
483.26  0.0020
483.27  0.0020
483.28  0.0021
483.29  0.0022
483.30  0.0023
483.31  0.0024
483.32  0.0025
483.33  0.0026
483.34  0.0027
483.35  0.0029
483.36  0.0030
483.37  0.0031
483.38  0.0032
483.39  0.0033
483.40  0.0034
483.41  0.0036
483.42  0.0038
483.43  0.0039
483.44  0.0041
483.45  0.0042
483.46  0.0044
483.47  0.0046
483.48  0.0047
483.49  0.0049
483.50  0.0051
483.51  0.0053
483.52  0.0055
483.53  0.0058
483.54  0.0060
483.55  0.0062
483.56  0.0065
483.57  0.0067
483.58  0.0069
483.59  0.0071
483.60  0.0074
483.61  0.0077
483.62  0.0080
483.63  0.0083
483.64  0.0087
483.65  0.0090
483.66  0.0093
483.67  0.0096
483.68  0.0099
483.69  0.0103
483.70  0.0106
483.71  0.0110
483.72  0.0115
483.73  0.0119
483.74  0.0123
483.75  0.0128
483.76  0.0132
483.77  0.0136
483.78  0.0141
483.79  0.0145
483.80  0.0150
483.81  0.0155
483.82  0.0161
483.83  0.0167
483.84  0.0173
483.85  0.0179
483.86  0.0185
483.87  0.0190
483.88  0.0196
483.89  0.0202
483.90  0.0208
483.91  0.0216
483.92  0.0223
483.93  0.0231
483.94  0.0239
483.95  0.0246
483.96  0.0254
483.97  0.0262
483.98  0.0270
483.99  0.0277
484.00  0.0285
484.01  0.0295
484.02  0.0305
484.03  0.0315
484.04  0.0325
484.05  0.0335
484.06  0.0345
484.07  0.0355
484.08  0.0364
484.09  0.0374
484.10  0.0384
484.11  0.0397
484.12  0.0410
484.13  0.0422
484.14  0.0435
484.15  0.0447
484.16  0.0460
484.17  0.0473
484.18  0.0485
484.19  0.0498
484.20  0.0511
484.21  0.0526
484.22  0.0542
484.23  0.0558
484.24  0.0574
484.25  0.0595
484.26  0.0611
484.27  0.0628
484.28  0.0644
484.29  0.0660
484.30  0.0676
484.31  0.0695
484.32  0.0715
484.33  0.0735
484.34  0.0754
484.35  0.0774
484.36  0.0794
484.37  0.0813
484.38  0.0833
484.39  0.0853
484.40  0.0873
484.41  0.0896
484.42  0.0920
484.43  0.0944
484.44  0.0967
484.45  0.0991
484.46  0.1015
484.47  0.1039
484.48  0.1063
484.49  0.1086
484.50  0.1110
484.51  0.1138
484.52  0.1166
484.53  0.1194
484.54  0.1222
484.55  0.1250
484.56  0.1279
484.57  0.1307
484.58  0.1335
484.59  0.1364
484.60  0.1392
484.61  0.1424
484.62  0.1457
484.63  0.1490
484.64  0.1522
484.65  0.1555
484.66  0.1588
484.67  0.1621
484.68  0.1654
484.69  0.1687
484.70  0.1720
484.71  0.1757
484.72  0.1794
484.73  0.1831
484.74  0.1868
484.75  0.1905
484.76  0.1943
484.77  0.1981
484.78  0.2019
484.79  0.2056
484.80  0.2094
484.81  0.2136
484.82  0.2177
484.83  0.2219
484.84  0.2260
484.85  0.2302
484.86  0.2344
484.87  0.2387
484.88  0.2429
484.89  0.2471
484.90  0.2514
484.91  0.2559
484.92  0.2605
484.93  0.2651
484.94  0.2696
484.95  0.2742
484.96  0.2788
484.97  0.2835
484.98  0.2882
484.99  0.2929
485.00  0.2975
485.01  0.3024
485.02  0.3073
485.03  0.3122
485.04  0.3171
485.05  0.3220
485.06  0.3271
485.07  0.3322
485.08  0.3372
485.09  0.3423
485.10  0.3473
485.11  0.3525
485.12  0.3576
485.13  0.3628
485.14  0.3680
485.15  0.3732
485.16  0.3785
485.17  0.3839
485.18  0.3892
485.19  0.3946
485.20  0.3999
485.21  0.4053
485.22  0.4106
485.23  0.4160
485.24  0.4213
485.25  0.4266
485.26  0.4322
485.27  0.4378
485.28  0.4433
485.29  0.4489
485.30  0.4545
485.31  0.4599
485.32  0.4653
485.33  0.4707
485.34  0.4761
485.35  0.4815
485.36  0.4872
485.37  0.4928
485.38  0.4985
485.39  0.5042
485.40  0.5099
485.41  0.5152
485.42  0.5206
485.43  0.5259
485.44  0.5313
485.45  0.5366
485.46  0.5423
485.47  0.5479
485.48  0.5542
485.49  0.5599
485.50  0.5656
485.51  0.5708
485.52  0.5760
485.53  0.5812
485.54  0.5865
485.55  0.5917
485.56  0.5972
485.57  0.6028
485.58  0.6084
485.59  0.6140
485.60  0.6195
485.61  0.6245
485.62  0.6295
485.63  0.6344
485.64  0.6394
485.65  0.6443
485.66  0.6497
485.67  0.6550
485.68  0.6603
485.69  0.6657
485.70  0.6711
485.71  0.6757
485.72  0.6803
485.73  0.6849
485.74  0.6895
485.75  0.6941
485.76  0.6992
485.77  0.7042
485.78  0.7092
485.79  0.7143
485.80  0.7193
485.81  0.7235
485.82  0.7277
485.83  0.7319
485.84  0.7361
485.85  0.7403
485.86  0.7449
485.87  0.7495
485.88  0.7542
485.89  0.7588
485.90  0.7635
485.91  0.7672
485.92  0.7710
485.93  0.7748
485.94  0.7785
485.95  0.7823
485.96  0.7864
485.97  0.7906
485.98  0.7947
485.99  0.7990
486.00  0.8032
486.01  0.8065
486.02  0.8098
486.03  0.8130
486.04  0.8163
486.05  0.8196
486.06  0.8233
486.07  0.8269
486.08  0.8306
486.09  0.8343
486.10  0.8381
486.11  0.8409
486.12  0.8438
486.13  0.8466
486.14  0.8494
486.15  0.8523
486.16  0.8554
486.17  0.8586
486.18  0.8617
486.19  0.8650
486.20  0.8682
486.21  0.8707
486.22  0.8731
486.23  0.8755
486.24  0.8779
486.25  0.8803
486.26  0.8829
486.27  0.8856
486.28  0.8882
486.29  0.8910
486.30  0.8938
486.31  0.8958
486.32  0.8979
486.33  0.8999
486.34  0.9020
486.35  0.9040
486.36  0.9061
486.37  0.9083
486.38  0.9105
486.39  0.9128
486.40  0.9151
486.41  0.9169
486.42  0.9186
486.43  0.9203
486.44  0.9220
486.45  0.9237
486.46  0.9254
486.47  0.9271
486.48  0.9288
486.49  0.9308
486.50  0.9327
486.51  0.9341
486.52  0.9356
486.53  0.9370
486.54  0.9385
486.55  0.9399
486.56  0.9412
486.57  0.9425
486.58  0.9438
486.59  0.9454
486.60  0.9469
486.61  0.9482
486.62  0.9494
486.63  0.9506
486.64  0.9519
486.65  0.9531
486.66  0.9540
486.67  0.9549
486.68  0.9559
486.69  0.9571
486.70  0.9583
486.71  0.9594
486.72  0.9611
486.73  0.9622
486.74  0.9633
486.75  0.9644
486.76  0.9650
486.77  0.9656
486.78  0.9663
486.79  0.9672
486.80  0.9682
486.81  0.9692
486.82  0.9701
486.83  0.9711
486.84  0.9721
486.85  0.9731
486.86  0.9735
486.87  0.9738
486.88  0.9742
486.89  0.9749
486.90  0.9757
486.91  0.9765
486.92  0.9774
486.93  0.9783
486.94  0.9792
486.95  0.9800
486.96  0.9802
486.97  0.9803
486.98  0.9805
486.99  0.9810
487.00  0.9815
487.01  0.9823
487.02  0.9831
487.03  0.9839
487.04  0.9847
487.05  0.9855
487.06  0.9855
487.07  0.9855
487.08  0.9854
487.09  0.9858
487.10  0.9862
487.11  0.9869
487.12  0.9876
487.13  0.9883
487.14  0.9890
487.15  0.9898
487.16  0.9896
487.17  0.9894
487.18  0.9893
487.19  0.9895
487.20  0.9897
487.21  0.9904
487.22  0.9910
487.23  0.9916
487.24  0.9923
487.25  0.9930
487.26  0.9927
487.27  0.9925
487.28  0.9922
487.29  0.9923
487.30  0.9925
487.31  0.9930
487.32  0.9935
487.33  0.9941
487.34  0.9947
487.35  0.9953
487.36  0.9950
487.37  0.9947
487.38  0.9944
487.39  0.9944
487.40  0.9945
487.41  0.9949
487.42  0.9953
487.43  0.9959
487.44  0.9964
487.45  0.9970
487.46  0.9967
487.47  0.9964
487.48  0.9961
487.49  0.9960
487.50  0.9959
487.51  0.9962
487.52  0.9966
487.53  0.9971
487.54  0.9975
487.55  0.9980
487.56  0.9978
487.57  0.9975
487.58  0.9972
487.59  0.9971
487.60  0.9969
487.61  0.9972
487.62  0.9974
487.63  0.9978
487.64  0.9982
487.65  0.9986
487.66  0.9984
487.67  0.9982
487.68  0.9980
487.69  0.9978
487.70  0.9976
487.71  0.9977
487.72  0.9979
487.73  0.9982
487.74  0.9986
487.75  0.9989
487.76  0.9988
487.77  0.9987
487.78  0.9986
487.79  0.9983
487.80  0.9980
487.81  0.9981
487.82  0.9981
487.83  0.9984
487.84  0.9987
487.85  0.9990
487.86  0.9990
487.87  0.9989
487.88  0.9989
487.89  0.9986
487.90  0.9982
487.91  0.9982
487.92  0.9981
487.93  0.9983
487.94  0.9986
487.95  0.9988
487.96  0.9989
487.97  0.9996
487.98  0.9997
487.99  0.9993
488.00  0.9990
488.01  0.9988
488.02  0.9987
488.03  0.9989
488.04  0.9991
488.05  0.9993
488.06  0.9995
488.07  0.9997
488.08  0.9999
488.09  0.9995
488.10  0.9991
488.11  0.9989
488.12  0.9987
488.13  0.9988
488.14  0.9990
488.15  0.9991
488.16  0.9994
488.17  0.9997
488.18  1.0000
488.19  0.9996
488.20  0.9991
488.21  0.9988
488.22  0.9985
488.23  0.9986
488.24  0.9987
488.25  0.9988
488.26  0.9992
488.27  0.9995
488.28  0.9999
488.29  0.9994
488.30  0.9990
488.31  0.9986
488.32  0.9982
488.33  0.9983
488.34  0.9984
488.35  0.9984
488.36  0.9988
488.37  0.9992
488.38  0.9996
488.39  0.9991
488.40  0.9986
488.41  0.9982
488.42  0.9978
488.43  0.9978
488.44  0.9978
488.45  0.9978
488.46  0.9982
488.47  0.9986
488.48  0.9990
488.49  0.9985
488.50  0.9980
488.51  0.9976
488.52  0.9972
488.53  0.9972
488.54  0.9971
488.55  0.9971
488.56  0.9974
488.57  0.9978
488.58  0.9982
488.59  0.9978
488.60  0.9973
488.61  0.9969
488.62  0.9965
488.63  0.9964
488.64  0.9963
488.65  0.9962
488.66  0.9965
488.67  0.9968
488.68  0.9972
488.69  0.9968
488.70  0.9964
488.71  0.9960
488.72  0.9956
488.73  0.9955
488.74  0.9953
488.75  0.9952
488.76  0.9954
488.77  0.9957
488.78  0.9961
488.79  0.9958
488.80  0.9954
488.81  0.9951
488.82  0.9948
488.83  0.9946
488.84  0.9944
488.85  0.9942
488.86  0.9943
488.87  0.9945
488.88  0.9949
488.89  0.9946
488.90  0.9944
488.91  0.9941
488.92  0.9939
488.93  0.9936
488.94  0.9934
488.95  0.9931
488.96  0.9932
488.97  0.9933
488.98  0.9937
488.99  0.9935
489.00  0.9934
489.01  0.9926
489.02  0.9925
489.03  0.9922
489.04  0.9920
489.05  0.9917
489.06  0.9917
489.07  0.9917
489.08  0.9920
489.09  0.9920
489.10  0.9920
489.11  0.9920
489.12  0.9919
489.13  0.9916
489.14  0.9913
489.15  0.9909
489.16  0.9909
489.17  0.9908
489.18  0.9910
489.19  0.9911
489.20  0.9912
489.21  0.9913
489.22  0.9919
489.23  0.9916
489.24  0.9912
489.25  0.9908
489.26  0.9907
489.27  0.9906
489.28  0.9908
489.29  0.9910
489.30  0.9912
489.31  0.9914
489.32  0.9916
489.33  0.9912
489.34  0.9908
489.35  0.9903
489.36  0.9901
489.37  0.9899
489.38  0.9901
489.39  0.9903
489.40  0.9906
489.41  0.9909
489.42  0.9912
489.43  0.9907
489.44  0.9903
489.45  0.9898
489.46  0.9896
489.47  0.9893
489.48  0.9894
489.49  0.9897
489.50  0.9900
489.51  0.9904
489.52  0.9907
489.53  0.9902
489.54  0.9898
489.55  0.9893
489.56  0.9889
489.57  0.9886
489.58  0.9886
489.59  0.9890
489.60  0.9894
489.61  0.9898
489.62  0.9901
489.63  0.9896
489.64  0.9892
489.65  0.9887
489.66  0.9883
489.67  0.9879
489.68  0.9879
489.69  0.9882
489.70  0.9886
489.71  0.9890
489.72  0.9894
489.73  0.9889
489.74  0.9884
489.75  0.9879
489.76  0.9875
489.77  0.9871
489.78  0.9870
489.79  0.9874
489.80  0.9878
489.81  0.9881
489.82  0.9885
489.83  0.9880
489.84  0.9875
489.85  0.9871
489.86  0.9867
489.87  0.9863
489.88  0.9862
489.89  0.9865
489.90  0.9868
489.91  0.9871
489.92  0.9874
489.93  0.9870
489.94  0.9866
489.95  0.9862
489.96  0.9858
489.97  0.9854
489.98  0.9853
489.99  0.9855
490.00  0.9858
490.01  0.9861
490.02  0.9864
490.03  0.9861
490.04  0.9858
490.05  0.9855
490.06  0.9852
490.07  0.9849
490.08  0.9848
490.09  0.9850
490.10  0.9852
490.11  0.9854
490.12  0.9857
490.13  0.9855
490.14  0.9853
490.15  0.9850
490.16  0.9849
490.17  0.9847
490.18  0.9845
490.19  0.9846
490.20  0.9847
490.21  0.9849
490.22  0.9850
490.23  0.9849
490.24  0.9848
490.25  0.9847
490.26  0.9840
490.27  0.9840
490.28  0.9837
490.29  0.9838
490.30  0.9839
490.31  0.9840
490.32  0.9840
490.33  0.9841
490.34  0.9841
490.35  0.9841
490.36  0.9841
490.37  0.9842
490.38  0.9839
490.39  0.9839
490.40  0.9838
490.41  0.9838
490.42  0.9838
490.43  0.9839
490.44  0.9840
490.45  0.9841
490.46  0.9843
490.47  0.9850
490.48  0.9847
490.49  0.9846
490.50  0.9845
490.51  0.9844
490.52  0.9843
490.53  0.9846
490.54  0.9848
490.55  0.9850
490.56  0.9853
490.57  0.9855
490.58  0.9852
490.59  0.9850
490.60  0.9848
490.61  0.9846
490.62  0.9845
490.63  0.9848
490.64  0.9851
490.65  0.9854
490.66  0.9858
490.67  0.9861
490.68  0.9857
490.69  0.9854
490.70  0.9852
490.71  0.9849
490.72  0.9847
490.73  0.9851
490.74  0.9855
490.75  0.9859
490.76  0.9862
490.77  0.9866
490.78  0.9862
490.79  0.9859
490.80  0.9856
490.81  0.9853
490.82  0.9850
490.83  0.9854
490.84  0.9858
490.85  0.9862
490.86  0.9866
490.87  0.9870
490.88  0.9866
490.89  0.9863
490.90  0.9859
490.91  0.9855
490.92  0.9852
490.93  0.9856
490.94  0.9860
490.95  0.9865
490.96  0.9869
490.97  0.9873
490.98  0.9869
490.99  0.9865
491.00  0.9861
491.01  0.9858
491.02  0.9854
491.03  0.9858
491.04  0.9862
491.05  0.9866
491.06  0.9870
491.07  0.9874
491.08  0.9870
491.09  0.9866
491.10  0.9863
491.11  0.9859
491.12  0.9855
491.13  0.9859
491.14  0.9862
491.15  0.9866
491.16  0.9870
491.17  0.9873
491.18  0.9870
491.19  0.9866
491.20  0.9863
491.21  0.9860
491.22  0.9856
491.23  0.9859
491.24  0.9862
491.25  0.9865
491.26  0.9868
491.27  0.9871
491.28  0.9868
491.29  0.9866
491.30  0.9863
491.31  0.9860
491.32  0.9857
491.33  0.9860
491.34  0.9862
491.35  0.9864
491.36  0.9866
491.37  0.9869
491.38  0.9867
491.39  0.9865
491.40  0.9863
491.41  0.9861
491.42  0.9859
491.43  0.9860
491.44  0.9862
491.45  0.9863
491.46  0.9865
491.47  0.9866
491.48  0.9865
491.49  0.9858
491.50  0.9858
491.51  0.9857
491.52  0.9856
491.53  0.9857
491.54  0.9858
491.55  0.9858
491.56  0.9859
491.57  0.9860
491.58  0.9860
491.59  0.9860
491.60  0.9861
491.61  0.9861
491.62  0.9861
491.63  0.9861
491.64  0.9861
491.65  0.9860
491.66  0.9860
491.67  0.9860
491.68  0.9861
491.69  0.9862
491.70  0.9870
491.71  0.9871
491.72  0.9873
491.73  0.9872
491.74  0.9871
491.75  0.9870
491.76  0.9869
491.77  0.9868
491.78  0.9871
491.79  0.9873
491.80  0.9876
491.81  0.9878
491.82  0.9881
491.83  0.9879
491.84  0.9877
491.85  0.9875
491.86  0.9874
491.87  0.9872
491.88  0.9875
491.89  0.9878
491.90  0.9882
491.91  0.9885
491.92  0.9889
491.93  0.9886
491.94  0.9884
491.95  0.9881
491.96  0.9879
491.97  0.9876
491.98  0.9880
491.99  0.9884
492.00  0.9888
492.01  0.9892
492.02  0.9896
492.03  0.9893
492.04  0.9890
492.05  0.9887
492.06  0.9884
492.07  0.9881
492.08  0.9885
492.09  0.9889
492.10  0.9893
492.11  0.9898
492.12  0.9903
492.13  0.9899
492.14  0.9896
492.15  0.9892
492.16  0.9888
492.17  0.9885
492.18  0.9889
492.19  0.9893
492.20  0.9898
492.21  0.9903
492.22  0.9908
492.23  0.9904
492.24  0.9900
492.25  0.9896
492.26  0.9893
492.27  0.9889
492.28  0.9893
492.29  0.9897
492.30  0.9901
492.31  0.9906
492.32  0.9911
492.33  0.9907
492.34  0.9904
492.35  0.9900
492.36  0.9896
492.37  0.9892
492.38  0.9896
492.39  0.9900
492.40  0.9903
492.41  0.9908
492.42  0.9913
492.43  0.9910
492.44  0.9906
492.45  0.9903
492.46  0.9900
492.47  0.9896
492.48  0.9899
492.49  0.9902
492.50  0.9905
492.51  0.9910
492.52  0.9914
492.53  0.9912
492.54  0.9909
492.55  0.9906
492.56  0.9903
492.57  0.9900
492.58  0.9903
492.59  0.9905
492.60  0.9907
492.61  0.9911
492.62  0.9916
492.63  0.9914
492.64  0.9912
492.65  0.9910
492.66  0.9908
492.67  0.9906
492.68  0.9907
492.69  0.9909
492.70  0.9910
492.71  0.9914
492.72  0.9918
492.73  0.9911
492.74  0.9910
492.75  0.9909
492.76  0.9909
492.77  0.9908
492.78  0.9909
492.79  0.9909
492.80  0.9910
492.81  0.9914
492.82  0.9917
492.83  0.9917
492.84  0.9918
492.85  0.9918
492.86  0.9918
492.87  0.9918
492.88  0.9918
492.89  0.9918
492.90  0.9918
492.91  0.9920
492.92  0.9923
492.93  0.9925
492.94  0.9926
492.95  0.9927
492.96  0.9928
492.97  0.9929
492.98  0.9928
492.99  0.9927
493.00  0.9926
493.01  0.9928
493.02  0.9930
493.03  0.9932
493.04  0.9934
493.05  0.9936
493.06  0.9938
493.07  0.9941
493.08  0.9938
493.09  0.9936
493.10  0.9934
493.11  0.9935
493.12  0.9937
493.13  0.9940
493.14  0.9942
493.15  0.9945
493.16  0.9948
493.17  0.9951
493.18  0.9947
493.19  0.9944
493.20  0.9941
493.21  0.9941
493.22  0.9942
493.23  0.9945
493.24  0.9948
493.25  0.9951
493.26  0.9955
493.27  0.9958
493.28  0.9953
493.29  0.9949
493.30  0.9945
493.31  0.9945
493.32  0.9945
493.33  0.9948
493.34  0.9951
493.35  0.9954
493.36  0.9957
493.37  0.9960
493.38  0.9955
493.39  0.9950
493.40  0.9944
493.41  0.9943
493.42  0.9942
493.43  0.9945
493.44  0.9948
493.45  0.9950
493.46  0.9953
493.47  0.9955
493.48  0.9949
493.49  0.9943
493.50  0.9937
493.51  0.9935
493.52  0.9933
493.53  0.9934
493.54  0.9936
493.55  0.9938
493.56  0.9940
493.57  0.9941
493.58  0.9935
493.59  0.9928
493.60  0.9921
493.61  0.9917
493.62  0.9913
493.63  0.9914
493.64  0.9914
493.65  0.9915
493.66  0.9915
493.67  0.9916
493.68  0.9908
493.69  0.9900
493.70  0.9892
493.71  0.9887
493.72  0.9882
493.73  0.9880
493.74  0.9879
493.75  0.9878
493.76  0.9876
493.77  0.9875
493.78  0.9866
493.79  0.9858
493.80  0.9849
493.81  0.9842
493.82  0.9834
493.83  0.9831
493.84  0.9827
493.85  0.9824
493.86  0.9820
493.87  0.9817
493.88  0.9807
493.89  0.9797
493.90  0.9788
493.91  0.9778
493.92  0.9768
493.93  0.9762
493.94  0.9756
493.95  0.9750
493.96  0.9743
493.97  0.9737
493.98  0.9720
493.99  0.9710
494.00  0.9699
494.01  0.9687
494.02  0.9674
494.03  0.9665
494.04  0.9656
494.05  0.9647
494.06  0.9638
494.07  0.9629
494.08  0.9616
494.09  0.9604
494.10  0.9592
494.11  0.9576
494.12  0.9560
494.13  0.9547
494.14  0.9535
494.15  0.9522
494.16  0.9509
494.17  0.9496
494.18  0.9481
494.19  0.9467
494.20  0.9452
494.21  0.9433
494.22  0.9414
494.23  0.9397
494.24  0.9380
494.25  0.9363
494.26  0.9346
494.27  0.9329
494.28  0.9311
494.29  0.9294
494.30  0.9277
494.31  0.9254
494.32  0.9230
494.33  0.9209
494.34  0.9187
494.35  0.9165
494.36  0.9144
494.37  0.9122
494.38  0.9102
494.39  0.9082
494.40  0.9061
494.41  0.9033
494.42  0.9005
494.43  0.8979
494.44  0.8952
494.45  0.8926
494.46  0.8899
494.47  0.8873
494.48  0.8849
494.49  0.8824
494.50  0.8800
494.51  0.8768
494.52  0.8735
494.53  0.8703
494.54  0.8672
494.55  0.8640
494.56  0.8609
494.57  0.8577
494.58  0.8549
494.59  0.8520
494.60  0.8492
494.61  0.8454
494.62  0.8417
494.63  0.8380
494.64  0.8343
494.65  0.8307
494.66  0.8270
494.67  0.8233
494.68  0.8200
494.69  0.8167
494.70  0.8134
494.71  0.8092
494.72  0.8050
494.73  0.8008
494.74  0.7966
494.75  0.7924
494.76  0.7883
494.77  0.7841
494.78  0.7803
494.79  0.7766
494.80  0.7728
494.81  0.7681
494.82  0.7635
494.83  0.7588
494.84  0.7542
494.85  0.7496
494.86  0.7449
494.87  0.7403
494.88  0.7361
494.89  0.7319
494.90  0.7277
494.91  0.7226
494.92  0.7175
494.93  0.7125
494.94  0.7074
494.95  0.7024
494.96  0.6974
494.97  0.6923
494.98  0.6877
494.99  0.6831
495.00  0.6785
495.01  0.6731
495.02  0.6677
495.03  0.6623
495.04  0.6570
495.05  0.6516
495.06  0.6462
495.07  0.6409
495.08  0.6359
495.09  0.6309
495.10  0.6260
495.11  0.6204
495.12  0.6148
495.13  0.6092
495.14  0.6036
495.15  0.5980
495.16  0.5924
495.17  0.5868
495.18  0.5816
495.19  0.5764
495.20  0.5711
495.21  0.5654
495.22  0.5597
495.23  0.5534
495.24  0.5477
495.25  0.5420
495.26  0.5363
495.27  0.5307
495.28  0.5253
495.29  0.5199
495.30  0.5146
495.31  0.5089
495.32  0.5032
495.33  0.4975
495.34  0.4918
495.35  0.4861
495.36  0.4804
495.37  0.4747
495.38  0.4693
495.39  0.4639
495.40  0.4584
495.41  0.4528
495.42  0.4473
495.43  0.4417
495.44  0.4361
495.45  0.4305
495.46  0.4249
495.47  0.4193
495.48  0.4140
495.49  0.4086
495.50  0.4032
495.51  0.3979
495.52  0.3925
495.53  0.3871
495.54  0.3817
495.55  0.3763
495.56  0.3710
495.57  0.3656
495.58  0.3604
495.59  0.3552
495.60  0.3500
495.61  0.3449
495.62  0.3399
495.63  0.3348
495.64  0.3297
495.65  0.3247
495.66  0.3196
495.67  0.3145
495.68  0.3096
495.69  0.3047
495.70  0.2997
495.71  0.2951
495.72  0.2904
495.73  0.2857
495.74  0.2810
495.75  0.2763
495.76  0.2716
495.77  0.2669
495.78  0.2623
495.79  0.2577
495.80  0.2532
495.81  0.2489
495.82  0.2446
495.83  0.2404
495.84  0.2361
495.85  0.2319
495.86  0.2276
495.87  0.2234
495.88  0.2192
495.89  0.2150
495.90  0.2108
495.91  0.2070
495.92  0.2033
495.93  0.1995
495.94  0.1957
495.95  0.1919
495.96  0.1881
495.97  0.1843
495.98  0.1806
495.99  0.1768
496.00  0.1731
496.01  0.1698
496.02  0.1665
496.03  0.1632
496.04  0.1598
496.05  0.1565
496.06  0.1532
496.07  0.1499
496.08  0.1466
496.09  0.1434
496.10  0.1401
496.11  0.1372
496.12  0.1344
496.13  0.1315
496.14  0.1287
496.15  0.1258
496.16  0.1230
496.17  0.1202
496.18  0.1173
496.19  0.1145
496.20  0.1117
496.21  0.1093
496.22  0.1069
496.23  0.1045
496.24  0.1021
496.25  0.0997
496.26  0.0973
496.27  0.0949
496.28  0.0925
496.29  0.0902
496.30  0.0878
496.31  0.0858
496.32  0.0838
496.33  0.0818
496.34  0.0798
496.35  0.0779
496.36  0.0759
496.37  0.0739
496.38  0.0719
496.39  0.0699
496.40  0.0680
496.41  0.0664
496.42  0.0647
496.43  0.0631
496.44  0.0615
496.45  0.0599
496.46  0.0583
496.47  0.0567
496.48  0.0545
496.49  0.0529
496.50  0.0513
496.51  0.0500
496.52  0.0488
496.53  0.0475
496.54  0.0462
496.55  0.0450
496.56  0.0437
496.57  0.0424
496.58  0.0412
496.59  0.0399
496.60  0.0386
496.61  0.0376
496.62  0.0366
496.63  0.0356
496.64  0.0346
496.65  0.0336
496.66  0.0326
496.67  0.0316
496.68  0.0306
496.69  0.0296
496.70  0.0286
496.71  0.0279
496.72  0.0271
496.73  0.0263
496.74  0.0255
496.75  0.0248
496.76  0.0240
496.77  0.0232
496.78  0.0225
496.79  0.0217
496.80  0.0209
496.81  0.0203
496.82  0.0197
496.83  0.0191
496.84  0.0186
496.85  0.0180
496.86  0.0174
496.87  0.0168
496.88  0.0162
496.89  0.0156
496.90  0.0150
496.91  0.0146
496.92  0.0142
496.93  0.0137
496.94  0.0133
496.95  0.0128
496.96  0.0124
496.97  0.0120
496.98  0.0115
496.99  0.0111
497.00  0.0106
497.01  0.0103
497.02  0.0100
497.03  0.0097
497.04  0.0094
497.05  0.0090
497.06  0.0087
497.07  0.0084
497.08  0.0081
497.09  0.0077
497.10  0.0074
497.11  0.0072
497.12  0.0070
497.13  0.0067
497.14  0.0065
497.15  0.0063
497.16  0.0060
497.17  0.0058
497.18  0.0056
497.19  0.0053
497.20  0.0051
497.21  0.0049
497.22  0.0048
497.23  0.0046
497.24  0.0044
497.25  0.0043
497.26  0.0041
497.27  0.0039
497.28  0.0038
497.29  0.0036
497.30  0.0034
497.31  0.0033
497.32  0.0032
497.33  0.0031
497.34  0.0030
497.35  0.0029
497.36  0.0028
497.37  0.0026
497.38  0.0025
497.39  0.0024
497.40  0.0023
497.41  0.0022
497.42  0.0021
497.43  0.0021
497.44  0.0020
497.45  0.0019
497.46  0.0018
497.47  0.0017
497.48  0.0017
497.49  0.0016
497.50  0.0015
497.51  0.0014
497.52  0.0014
497.53  0.0013
497.54  0.0013
497.55  0.0012
497.56  0.0012
497.57  0.0011
497.58  0.0011
497.59  0.0010
497.60  0.0010
497.61  0.0009
497.62  0.0009
497.63  0.0009
497.64  0.0008
497.65  0.0008
497.66  0.0008
497.67  0.0007
497.68  0.0007
497.69  0.0007
497.70  0.0006
