# Provided by ESA in 10/2012
# Important Notes:
# The data contained here correspond to the OLCI Spectral Model CDR derived in 2011.
# The data have been calculated for the camera 4, pointing nadir.
667.61  0.0006
667.62  0.0006
667.63  0.0007
667.64  0.0007
667.65  0.0007
667.66  0.0008
667.67  0.0008
667.68  0.0008
667.69  0.0009
667.70  0.0009
667.71  0.0009
667.72  0.0010
667.73  0.0011
667.74  0.0011
667.75  0.0012
667.76  0.0012
667.77  0.0013
667.78  0.0013
667.79  0.0014
667.80  0.0014
667.81  0.0015
667.82  0.0015
667.83  0.0016
667.84  0.0017
667.85  0.0018
667.86  0.0019
667.87  0.0019
667.88  0.0020
667.89  0.0021
667.90  0.0022
667.91  0.0022
667.92  0.0024
667.93  0.0025
667.94  0.0026
667.95  0.0027
667.96  0.0028
667.97  0.0029
667.98  0.0030
667.99  0.0031
668.00  0.0033
668.01  0.0034
668.02  0.0035
668.03  0.0037
668.04  0.0039
668.05  0.0040
668.06  0.0042
668.07  0.0043
668.08  0.0045
668.09  0.0047
668.10  0.0048
668.11  0.0050
668.12  0.0052
668.13  0.0054
668.14  0.0057
668.15  0.0059
668.16  0.0061
668.17  0.0064
668.18  0.0066
668.19  0.0068
668.20  0.0070
668.21  0.0073
668.22  0.0076
668.23  0.0079
668.24  0.0082
668.25  0.0085
668.26  0.0088
668.27  0.0092
668.28  0.0095
668.29  0.0098
668.30  0.0101
668.31  0.0104
668.32  0.0109
668.33  0.0113
668.34  0.0117
668.35  0.0122
668.36  0.0126
668.37  0.0130
668.38  0.0134
668.39  0.0139
668.40  0.0143
668.41  0.0147
668.42  0.0153
668.43  0.0159
668.44  0.0165
668.45  0.0170
668.46  0.0176
668.47  0.0182
668.48  0.0188
668.49  0.0194
668.50  0.0199
668.51  0.0205
668.52  0.0213
668.53  0.0220
668.54  0.0228
668.55  0.0236
668.56  0.0243
668.57  0.0251
668.58  0.0258
668.59  0.0266
668.60  0.0274
668.61  0.0281
668.62  0.0291
668.63  0.0301
668.64  0.0311
668.65  0.0320
668.66  0.0330
668.67  0.0340
668.68  0.0350
668.69  0.0360
668.70  0.0370
668.71  0.0379
668.72  0.0392
668.73  0.0404
668.74  0.0417
668.75  0.0429
668.76  0.0442
668.77  0.0454
668.78  0.0467
668.79  0.0479
668.80  0.0492
668.81  0.0504
668.82  0.0520
668.83  0.0535
668.84  0.0551
668.85  0.0567
668.86  0.0588
668.87  0.0604
668.88  0.0620
668.89  0.0636
668.90  0.0652
668.91  0.0668
668.92  0.0687
668.93  0.0707
668.94  0.0726
668.95  0.0745
668.96  0.0765
668.97  0.0784
668.98  0.0804
668.99  0.0824
669.00  0.0843
669.01  0.0863
669.02  0.0886
669.03  0.0910
669.04  0.0933
669.05  0.0957
669.06  0.0980
669.07  0.1004
669.08  0.1027
669.09  0.1051
669.10  0.1075
669.11  0.1098
669.12  0.1126
669.13  0.1154
669.14  0.1182
669.15  0.1209
669.16  0.1237
669.17  0.1265
669.18  0.1293
669.19  0.1322
669.20  0.1350
669.21  0.1378
669.22  0.1410
669.23  0.1442
669.24  0.1475
669.25  0.1507
669.26  0.1539
669.27  0.1572
669.28  0.1605
669.29  0.1637
669.30  0.1670
669.31  0.1703
669.32  0.1740
669.33  0.1777
669.34  0.1814
669.35  0.1850
669.36  0.1887
669.37  0.1925
669.38  0.1962
669.39  0.2000
669.40  0.2037
669.41  0.2075
669.42  0.2116
669.43  0.2157
669.44  0.2199
669.45  0.2240
669.46  0.2281
669.47  0.2323
669.48  0.2366
669.49  0.2408
669.50  0.2450
669.51  0.2492
669.52  0.2537
669.53  0.2583
669.54  0.2628
669.55  0.2673
669.56  0.2719
669.57  0.2765
669.58  0.2812
669.59  0.2858
669.60  0.2905
669.61  0.2951
669.62  0.3000
669.63  0.3049
669.64  0.3097
669.65  0.3146
669.66  0.3195
669.67  0.3245
669.68  0.3296
669.69  0.3346
669.70  0.3396
669.71  0.3447
669.72  0.3498
669.73  0.3550
669.74  0.3601
669.75  0.3653
669.76  0.3704
669.77  0.3757
669.78  0.3811
669.79  0.3864
669.80  0.3918
669.81  0.3971
669.82  0.4024
669.83  0.4077
669.84  0.4131
669.85  0.4184
669.86  0.4237
669.87  0.4293
669.88  0.4348
669.89  0.4404
669.90  0.4459
669.91  0.4515
669.92  0.4569
669.93  0.4623
669.94  0.4677
669.95  0.4731
669.96  0.4785
669.97  0.4841
669.98  0.4898
669.99  0.4954
670.00  0.5011
670.01  0.5068
670.02  0.5121
670.03  0.5175
670.04  0.5228
670.05  0.5281
670.06  0.5335
670.07  0.5392
670.08  0.5448
670.09  0.5505
670.10  0.5561
670.11  0.5624
670.12  0.5676
670.13  0.5728
670.14  0.5780
670.15  0.5833
670.16  0.5885
670.17  0.5940
670.18  0.5996
670.19  0.6052
670.20  0.6108
670.21  0.6163
670.22  0.6213
670.23  0.6263
670.24  0.6312
670.25  0.6362
670.26  0.6412
670.27  0.6465
670.28  0.6519
670.29  0.6572
670.30  0.6626
670.31  0.6679
670.32  0.6725
670.33  0.6772
670.34  0.6818
670.35  0.6864
670.36  0.6910
670.37  0.6961
670.38  0.7011
670.39  0.7061
670.40  0.7112
670.41  0.7162
670.42  0.7204
670.43  0.7247
670.44  0.7289
670.45  0.7331
670.46  0.7373
670.47  0.7420
670.48  0.7466
670.49  0.7513
670.50  0.7559
670.51  0.7605
670.52  0.7643
670.53  0.7681
670.54  0.7719
670.55  0.7756
670.56  0.7794
670.57  0.7836
670.58  0.7878
670.59  0.7920
670.60  0.7962
670.61  0.8004
670.62  0.8037
670.63  0.8070
670.64  0.8103
670.65  0.8136
670.66  0.8170
670.67  0.8207
670.68  0.8243
670.69  0.8280
670.70  0.8317
670.71  0.8354
670.72  0.8383
670.73  0.8412
670.74  0.8440
670.75  0.8469
670.76  0.8498
670.77  0.8530
670.78  0.8562
670.79  0.8594
670.80  0.8625
670.81  0.8657
670.82  0.8682
670.83  0.8706
670.84  0.8731
670.85  0.8755
670.86  0.8780
670.87  0.8807
670.88  0.8834
670.89  0.8861
670.90  0.8887
670.91  0.8914
670.92  0.8935
670.93  0.8956
670.94  0.8977
670.95  0.8998
670.96  0.9018
670.97  0.9040
670.98  0.9062
670.99  0.9084
671.00  0.9106
671.01  0.9128
671.02  0.9146
671.03  0.9164
671.04  0.9181
671.05  0.9199
671.06  0.9217
671.07  0.9234
671.08  0.9252
671.09  0.9269
671.10  0.9287
671.11  0.9304
671.12  0.9319
671.13  0.9334
671.14  0.9349
671.15  0.9364
671.16  0.9379
671.17  0.9392
671.18  0.9406
671.19  0.9419
671.20  0.9433
671.21  0.9446
671.22  0.9459
671.23  0.9472
671.24  0.9485
671.25  0.9498
671.26  0.9510
671.27  0.9520
671.28  0.9530
671.29  0.9539
671.30  0.9549
671.31  0.9559
671.32  0.9570
671.33  0.9581
671.34  0.9592
671.35  0.9604
671.36  0.9621
671.37  0.9628
671.38  0.9635
671.39  0.9641
671.40  0.9648
671.41  0.9655
671.42  0.9665
671.43  0.9675
671.44  0.9685
671.45  0.9696
671.46  0.9706
671.47  0.9710
671.48  0.9714
671.49  0.9718
671.50  0.9722
671.51  0.9726
671.52  0.9735
671.53  0.9745
671.54  0.9754
671.55  0.9763
671.56  0.9772
671.57  0.9774
671.58  0.9776
671.59  0.9778
671.60  0.9780
671.61  0.9781
671.62  0.9790
671.63  0.9798
671.64  0.9806
671.65  0.9815
671.66  0.9823
671.67  0.9823
671.68  0.9823
671.69  0.9823
671.70  0.9823
671.71  0.9824
671.72  0.9831
671.73  0.9838
671.74  0.9846
671.75  0.9853
671.76  0.9861
671.77  0.9860
671.78  0.9858
671.79  0.9857
671.80  0.9856
671.81  0.9855
671.82  0.9862
671.83  0.9868
671.84  0.9875
671.85  0.9881
671.86  0.9888
671.87  0.9886
671.88  0.9884
671.89  0.9882
671.90  0.9880
671.91  0.9878
671.92  0.9884
671.93  0.9889
671.94  0.9895
671.95  0.9901
671.96  0.9907
671.97  0.9904
671.98  0.9902
671.99  0.9899
672.00  0.9897
672.01  0.9894
672.02  0.9899
672.03  0.9904
672.04  0.9909
672.05  0.9914
672.06  0.9918
672.07  0.9916
672.08  0.9913
672.09  0.9911
672.10  0.9908
672.11  0.9906
672.12  0.9910
672.13  0.9914
672.14  0.9917
672.15  0.9921
672.16  0.9925
672.17  0.9923
672.18  0.9921
672.19  0.9919
672.20  0.9916
672.21  0.9914
672.22  0.9917
672.23  0.9920
672.24  0.9923
672.25  0.9926
672.26  0.9929
672.27  0.9927
672.28  0.9926
672.29  0.9924
672.30  0.9923
672.31  0.9921
672.32  0.9923
672.33  0.9925
672.34  0.9927
672.35  0.9928
672.36  0.9930
672.37  0.9930
672.38  0.9929
672.39  0.9928
672.40  0.9928
672.41  0.9927
672.42  0.9928
672.43  0.9929
672.44  0.9930
672.45  0.9930
672.46  0.9931
672.47  0.9931
672.48  0.9932
672.49  0.9932
672.50  0.9932
672.51  0.9933
672.52  0.9933
672.53  0.9932
672.54  0.9932
672.55  0.9932
672.56  0.9932
672.57  0.9933
672.58  0.9934
672.59  0.9936
672.60  0.9937
672.61  0.9944
672.62  0.9944
672.63  0.9943
672.64  0.9942
672.65  0.9941
672.66  0.9940
672.67  0.9943
672.68  0.9945
672.69  0.9948
672.70  0.9950
672.71  0.9953
672.72  0.9951
672.73  0.9949
672.74  0.9947
672.75  0.9946
672.76  0.9944
672.77  0.9947
672.78  0.9951
672.79  0.9954
672.80  0.9957
672.81  0.9961
672.82  0.9958
672.83  0.9956
672.84  0.9953
672.85  0.9951
672.86  0.9948
672.87  0.9952
672.88  0.9956
672.89  0.9960
672.90  0.9964
672.91  0.9968
672.92  0.9965
672.93  0.9962
672.94  0.9959
672.95  0.9956
672.96  0.9953
672.97  0.9957
672.98  0.9961
672.99  0.9966
673.00  0.9970
673.01  0.9974
673.02  0.9971
673.03  0.9967
673.04  0.9964
673.05  0.9960
673.06  0.9957
673.07  0.9961
673.08  0.9965
673.09  0.9970
673.10  0.9974
673.11  0.9978
673.12  0.9975
673.13  0.9971
673.14  0.9967
673.15  0.9963
673.16  0.9960
673.17  0.9964
673.18  0.9968
673.19  0.9972
673.20  0.9976
673.21  0.9981
673.22  0.9977
673.23  0.9973
673.24  0.9970
673.25  0.9966
673.26  0.9962
673.27  0.9966
673.28  0.9970
673.29  0.9973
673.30  0.9977
673.31  0.9981
673.32  0.9978
673.33  0.9974
673.34  0.9971
673.35  0.9968
673.36  0.9964
673.37  0.9967
673.38  0.9970
673.39  0.9974
673.40  0.9977
673.41  0.9980
673.42  0.9977
673.43  0.9974
673.44  0.9972
673.45  0.9969
673.46  0.9966
673.47  0.9968
673.48  0.9971
673.49  0.9973
673.50  0.9976
673.51  0.9978
673.52  0.9976
673.53  0.9974
673.54  0.9972
673.55  0.9970
673.56  0.9968
673.57  0.9970
673.58  0.9972
673.59  0.9973
673.60  0.9975
673.61  0.9976
673.62  0.9969
673.63  0.9969
673.64  0.9968
673.65  0.9967
673.66  0.9967
673.67  0.9967
673.68  0.9968
673.69  0.9969
673.70  0.9970
673.71  0.9971
673.72  0.9971
673.73  0.9971
673.74  0.9972
673.75  0.9972
673.76  0.9972
673.77  0.9972
673.78  0.9972
673.79  0.9972
673.80  0.9971
673.81  0.9971
673.82  0.9973
673.83  0.9974
673.84  0.9975
673.85  0.9977
673.86  0.9984
673.87  0.9983
673.88  0.9982
673.89  0.9981
673.90  0.9980
673.91  0.9980
673.92  0.9982
673.93  0.9985
673.94  0.9987
673.95  0.9990
673.96  0.9992
673.97  0.9990
673.98  0.9989
673.99  0.9987
674.00  0.9985
674.01  0.9983
674.02  0.9986
674.03  0.9989
674.04  0.9991
674.05  0.9994
674.06  0.9997
674.07  0.9994
674.08  0.9991
674.09  0.9988
674.10  0.9985
674.11  0.9982
674.12  0.9986
674.13  0.9989
674.14  0.9992
674.15  0.9996
674.16  0.9999
674.17  0.9996
674.18  0.9992
674.19  0.9988
674.20  0.9985
674.21  0.9981
674.22  0.9985
674.23  0.9989
674.24  0.9992
674.25  0.9996
674.26  1.0000
674.27  0.9996
674.28  0.9992
674.29  0.9988
674.30  0.9984
674.31  0.9980
674.32  0.9984
674.33  0.9987
674.34  0.9991
674.35  0.9995
674.36  0.9999
674.37  0.9995
674.38  0.9990
674.39  0.9986
674.40  0.9982
674.41  0.9978
674.42  0.9981
674.43  0.9985
674.44  0.9988
674.45  0.9992
674.46  0.9996
674.47  0.9991
674.48  0.9987
674.49  0.9983
674.50  0.9979
674.51  0.9975
674.52  0.9978
674.53  0.9981
674.54  0.9984
674.55  0.9987
674.56  0.9991
674.57  0.9987
674.58  0.9983
674.59  0.9979
674.60  0.9975
674.61  0.9971
674.62  0.9974
674.63  0.9977
674.64  0.9979
674.65  0.9982
674.66  0.9984
674.67  0.9981
674.68  0.9978
674.69  0.9974
674.70  0.9971
674.71  0.9968
674.72  0.9970
674.73  0.9972
674.74  0.9973
674.75  0.9975
674.76  0.9977
674.77  0.9975
674.78  0.9972
674.79  0.9970
674.80  0.9967
674.81  0.9965
674.82  0.9966
674.83  0.9967
674.84  0.9968
674.85  0.9969
674.86  0.9970
674.87  0.9963
674.88  0.9961
674.89  0.9960
674.90  0.9959
674.91  0.9958
674.92  0.9958
674.93  0.9958
674.94  0.9959
674.95  0.9959
674.96  0.9959
674.97  0.9959
674.98  0.9959
674.99  0.9959
675.00  0.9958
675.01  0.9958
675.02  0.9957
675.03  0.9957
675.04  0.9956
675.05  0.9955
675.06  0.9954
675.07  0.9955
675.08  0.9956
675.09  0.9957
675.10  0.9957
675.11  0.9958
675.12  0.9956
675.13  0.9955
675.14  0.9953
675.15  0.9951
675.16  0.9949
675.17  0.9951
675.18  0.9953
675.19  0.9954
675.20  0.9956
675.21  0.9958
675.22  0.9955
675.23  0.9952
675.24  0.9949
675.25  0.9946
675.26  0.9944
675.27  0.9946
675.28  0.9948
675.29  0.9950
675.30  0.9953
675.31  0.9955
675.32  0.9951
675.33  0.9947
675.34  0.9944
675.35  0.9940
675.36  0.9936
675.37  0.9939
675.38  0.9941
675.39  0.9944
675.40  0.9946
675.41  0.9949
675.42  0.9944
675.43  0.9940
675.44  0.9935
675.45  0.9930
675.46  0.9925
675.47  0.9928
675.48  0.9930
675.49  0.9933
675.50  0.9936
675.51  0.9938
675.52  0.9933
675.53  0.9927
675.54  0.9921
675.55  0.9915
675.56  0.9910
675.57  0.9912
675.58  0.9914
675.59  0.9916
675.60  0.9918
675.61  0.9921
675.62  0.9914
675.63  0.9907
675.64  0.9901
675.65  0.9894
675.66  0.9888
675.67  0.9889
675.68  0.9890
675.69  0.9892
675.70  0.9893
675.71  0.9894
675.72  0.9887
675.73  0.9879
675.74  0.9872
675.75  0.9865
675.76  0.9857
675.77  0.9857
675.78  0.9857
675.79  0.9857
675.80  0.9857
675.81  0.9857
675.82  0.9849
675.83  0.9841
675.84  0.9832
675.85  0.9824
675.86  0.9816
675.87  0.9814
675.88  0.9812
675.89  0.9810
675.90  0.9809
675.91  0.9807
675.92  0.9798
675.93  0.9789
675.94  0.9780
675.95  0.9770
675.96  0.9761
675.97  0.9757
675.98  0.9753
675.99  0.9749
676.00  0.9745
676.01  0.9741
676.02  0.9731
676.03  0.9721
676.04  0.9711
676.05  0.9701
676.06  0.9691
676.07  0.9684
676.08  0.9677
676.09  0.9670
676.10  0.9664
676.11  0.9657
676.12  0.9640
676.13  0.9629
676.14  0.9617
676.15  0.9606
676.16  0.9595
676.17  0.9585
676.18  0.9576
676.19  0.9566
676.20  0.9557
676.21  0.9547
676.22  0.9534
676.23  0.9521
676.24  0.9508
676.25  0.9496
676.26  0.9483
676.27  0.9469
676.28  0.9456
676.29  0.9443
676.30  0.9429
676.31  0.9416
676.32  0.9401
676.33  0.9386
676.34  0.9371
676.35  0.9356
676.36  0.9341
676.37  0.9324
676.38  0.9306
676.39  0.9289
676.40  0.9271
676.41  0.9254
676.42  0.9236
676.43  0.9218
676.44  0.9201
676.45  0.9183
676.46  0.9165
676.47  0.9143
676.48  0.9121
676.49  0.9099
676.50  0.9077
676.51  0.9055
676.52  0.9034
676.53  0.9014
676.54  0.8993
676.55  0.8972
676.56  0.8951
676.57  0.8924
676.58  0.8897
676.59  0.8871
676.60  0.8844
676.61  0.8817
676.62  0.8792
676.63  0.8768
676.64  0.8743
676.65  0.8719
676.66  0.8694
676.67  0.8662
676.68  0.8630
676.69  0.8598
676.70  0.8566
676.71  0.8534
676.72  0.8505
676.73  0.8477
676.74  0.8448
676.75  0.8419
676.76  0.8390
676.77  0.8353
676.78  0.8316
676.79  0.8279
676.80  0.8242
676.81  0.8205
676.82  0.8172
676.83  0.8139
676.84  0.8105
676.85  0.8072
676.86  0.8039
676.87  0.7997
676.88  0.7955
676.89  0.7913
676.90  0.7871
676.91  0.7829
676.92  0.7791
676.93  0.7753
676.94  0.7715
676.95  0.7677
676.96  0.7639
676.97  0.7593
676.98  0.7546
676.99  0.7500
677.00  0.7453
677.01  0.7407
677.02  0.7364
677.03  0.7322
677.04  0.7280
677.05  0.7237
677.06  0.7195
677.07  0.7144
677.08  0.7094
677.09  0.7043
677.10  0.6993
677.11  0.6942
677.12  0.6896
677.13  0.6849
677.14  0.6803
677.15  0.6757
677.16  0.6710
677.17  0.6656
677.18  0.6603
677.19  0.6549
677.20  0.6495
677.21  0.6442
677.22  0.6392
677.23  0.6342
677.24  0.6292
677.25  0.6242
677.26  0.6192
677.27  0.6136
677.28  0.6081
677.29  0.6025
677.30  0.5969
677.31  0.5913
677.32  0.5860
677.33  0.5808
677.34  0.5756
677.35  0.5703
677.36  0.5651
677.37  0.5588
677.38  0.5531
677.39  0.5474
677.40  0.5418
677.41  0.5361
677.42  0.5307
677.43  0.5253
677.44  0.5200
677.45  0.5146
677.46  0.5092
677.47  0.5036
677.48  0.4979
677.49  0.4922
677.50  0.4865
677.51  0.4808
677.52  0.4754
677.53  0.4700
677.54  0.4646
677.55  0.4591
677.56  0.4537
677.57  0.4482
677.58  0.4426
677.59  0.4370
677.60  0.4314
677.61  0.4259
677.62  0.4205
677.63  0.4152
677.64  0.4098
677.65  0.4044
677.66  0.3991
677.67  0.3937
677.68  0.3884
677.69  0.3830
677.70  0.3777
677.71  0.3723
677.72  0.3671
677.73  0.3619
677.74  0.3568
677.75  0.3516
677.76  0.3464
677.77  0.3414
677.78  0.3363
677.79  0.3313
677.80  0.3262
677.81  0.3212
677.82  0.3163
677.83  0.3114
677.84  0.3065
677.85  0.3015
677.86  0.2966
677.87  0.2920
677.88  0.2873
677.89  0.2826
677.90  0.2780
677.91  0.2733
677.92  0.2687
677.93  0.2642
677.94  0.2596
677.95  0.2551
677.96  0.2505
677.97  0.2463
677.98  0.2420
677.99  0.2378
678.00  0.2336
678.01  0.2293
678.02  0.2252
678.03  0.2210
678.04  0.2169
678.05  0.2127
678.06  0.2086
678.07  0.2048
678.08  0.2011
678.09  0.1973
678.10  0.1935
678.11  0.1897
678.12  0.1860
678.13  0.1823
678.14  0.1786
678.15  0.1749
678.16  0.1712
678.17  0.1679
678.18  0.1646
678.19  0.1613
678.20  0.1581
678.21  0.1548
678.22  0.1515
678.23  0.1483
678.24  0.1450
678.25  0.1418
678.26  0.1385
678.27  0.1357
678.28  0.1329
678.29  0.1301
678.30  0.1272
678.31  0.1244
678.32  0.1216
678.33  0.1188
678.34  0.1160
678.35  0.1132
678.36  0.1105
678.37  0.1081
678.38  0.1057
678.39  0.1033
678.40  0.1009
678.41  0.0985
678.42  0.0962
678.43  0.0938
678.44  0.0915
678.45  0.0891
678.46  0.0868
678.47  0.0848
678.48  0.0828
678.49  0.0809
678.50  0.0789
678.51  0.0769
678.52  0.0750
678.53  0.0730
678.54  0.0711
678.55  0.0691
678.56  0.0672
678.57  0.0656
678.58  0.0640
678.59  0.0624
678.60  0.0608
678.61  0.0592
678.62  0.0570
678.63  0.0554
678.64  0.0539
678.65  0.0523
678.66  0.0507
678.67  0.0495
678.68  0.0482
678.69  0.0470
678.70  0.0457
678.71  0.0444
678.72  0.0432
678.73  0.0419
678.74  0.0407
678.75  0.0394
678.76  0.0382
678.77  0.0372
678.78  0.0362
678.79  0.0352
678.80  0.0342
678.81  0.0332
678.82  0.0322
678.83  0.0312
678.84  0.0303
678.85  0.0293
678.86  0.0283
678.87  0.0275
678.88  0.0268
678.89  0.0260
678.90  0.0252
678.91  0.0245
678.92  0.0237
678.93  0.0229
678.94  0.0222
678.95  0.0214
678.96  0.0206
678.97  0.0201
678.98  0.0195
678.99  0.0189
679.00  0.0183
679.01  0.0177
679.02  0.0171
679.03  0.0166
679.04  0.0160
679.05  0.0154
679.06  0.0148
679.07  0.0144
679.08  0.0140
679.09  0.0135
679.10  0.0131
679.11  0.0127
679.12  0.0122
679.13  0.0118
679.14  0.0114
679.15  0.0109
679.16  0.0105
679.17  0.0102
679.18  0.0099
679.19  0.0095
679.20  0.0092
679.21  0.0089
679.22  0.0086
679.23  0.0083
679.24  0.0079
679.25  0.0076
679.26  0.0073
679.27  0.0071
679.28  0.0069
679.29  0.0066
679.30  0.0064
679.31  0.0062
679.32  0.0059
679.33  0.0057
679.34  0.0055
679.35  0.0052
679.36  0.0050
679.37  0.0049
679.38  0.0047
679.39  0.0045
679.40  0.0044
679.41  0.0042
679.42  0.0040
679.43  0.0039
679.44  0.0037
679.45  0.0036
679.46  0.0034
679.47  0.0033
679.48  0.0032
679.49  0.0030
679.50  0.0029
679.51  0.0028
679.52  0.0027
679.53  0.0026
679.54  0.0025
679.55  0.0024
679.56  0.0023
679.57  0.0022
679.58  0.0021
679.59  0.0020
679.60  0.0019
679.61  0.0019
679.62  0.0018
679.63  0.0017
679.64  0.0016
679.65  0.0016
679.66  0.0015
679.67  0.0014
679.68  0.0014
679.69  0.0013
679.70  0.0013
679.71  0.0012
679.72  0.0012
679.73  0.0011
679.74  0.0011
679.75  0.0010
679.76  0.0010
679.77  0.0009
679.78  0.0009
679.79  0.0008
679.80  0.0008
679.81  0.0008
679.82  0.0007
679.83  0.0007
679.84  0.0007
679.85  0.0006
679.86  0.0006
